SpectraSuite Data File
++++++++++++++++++++++++++++++++++++
Date: Thu Aug 05 09:52:33 EEST 2021
User: CanSEE
Dark Spectrum Present: No
Reference Spectrum Present: No
Number of Sampled Component Spectra: 1
Spectrometers: MAYP112785
Integration Time (usec): 10000 (MAYP112785)
Spectra Averaged: 1 (MAYP112785)
Boxcar Smoothing: 0 (MAYP112785)
Correct for Electrical Dark: No (MAYP112785)
Strobe/Lamp Enabled: No (MAYP112785)
Correct for Detector Non-linearity: No (MAYP112785)
Correct for Stray Light: No (MAYP112785)
Number of Pixels in Processed Spectrum: 2068
>>>>>Begin Processed Spectral Data<<<<<
198.35	3434.00
198.82	2477.00
199.30	2579.00
199.77	2553.00
200.24	2577.00
200.71	2587.00
201.18	2584.00
201.65	2588.00
202.13	2587.00
202.60	2587.00
203.07	2583.00
203.54	2590.00
204.01	2577.00
204.48	2583.00
204.96	2579.00
205.43	2581.00
205.90	2580.00
206.37	2583.00
206.84	2581.00
207.31	2573.00
207.78	2588.00
208.26	2582.00
208.73	2584.00
209.20	2578.00
209.67	2584.00
210.14	2579.00
210.61	2584.00
211.08	2578.00
211.56	2582.00
212.03	2583.00
212.50	2580.00
212.97	2574.00
213.44	2583.00
213.91	2579.00
214.38	2582.00
214.85	2586.00
215.33	2579.00
215.80	2579.00
216.27	2585.00
216.74	2583.00
217.21	2578.00
217.68	2589.00
218.15	2583.00
218.62	2580.00
219.09	2580.00
219.57	2576.00
220.04	2576.00
220.51	2578.00
220.98	2579.00
221.45	2580.00
221.92	2581.00
222.39	2583.00
222.86	2580.00
223.33	2581.00
223.80	2583.00
224.27	2580.00
224.74	2583.00
225.22	2580.00
225.69	2583.00
226.16	2588.00
226.63	2583.00
227.10	2581.00
227.57	2581.00
228.04	2579.00
228.51	2583.00
228.98	2588.00
229.45	2576.00
229.92	2588.00
230.39	2576.00
230.86	2585.00
231.33	2580.00
231.80	2579.00
232.27	2581.00
232.75	2583.00
233.22	2580.00
233.69	2582.00
234.16	2579.00
234.63	2582.00
235.10	2581.00
235.57	2579.00
236.04	2586.00
236.51	2587.00
236.98	2585.00
237.45	2591.00
237.92	2577.00
238.39	2579.00
238.86	2580.00
239.33	2633.00
239.80	2578.00
240.27	2583.00
240.74	2581.00
241.21	2583.00
241.68	2582.00
242.15	2581.00
242.62	2584.00
243.09	2587.00
243.56	2581.00
244.03	2594.00
244.50	2583.00
244.97	2586.00
245.44	2595.00
245.91	2579.00
246.38	2577.00
246.85	2579.00
247.32	2583.00
247.79	2583.00
248.26	2592.00
248.73	2588.00
249.20	2577.00
249.67	2586.00
250.14	2582.00
250.61	2580.00
251.08	2580.00
251.55	2581.00
252.02	2579.00
252.49	2578.00
252.96	2585.00
253.43	2582.00
253.90	2587.00
254.37	2583.00
254.84	2582.00
255.31	2581.00
255.77	2586.00
256.24	2582.00
256.71	2583.00
257.18	2596.00
257.65	2582.00
258.12	2583.00
258.59	2584.00
259.06	2587.00
259.53	2586.00
260.00	2582.00
260.47	2577.00
260.94	2586.00
261.41	2588.00
261.88	2583.00
262.35	2583.00
262.81	2586.00
263.28	2583.00
263.75	2584.00
264.22	2591.00
264.69	2583.00
265.16	2586.00
265.63	2589.00
266.10	2580.00
266.57	2571.00
267.04	2585.00
267.51	2583.00
267.97	2582.00
268.44	2578.00
268.91	2591.00
269.38	2583.00
269.85	2583.00
270.32	2578.00
270.79	2582.00
271.26	2581.00
271.73	2579.00
272.19	2587.00
272.66	2583.00
273.13	2578.00
273.60	2576.00
274.07	2578.00
274.54	2588.00
275.01	2585.00
275.48	2579.00
275.94	2583.00
276.41	2581.00
276.88	2581.00
277.35	2579.00
277.82	2579.00
278.29	2585.00
278.76	2575.00
279.22	2585.00
279.69	2577.00
280.16	2581.00
280.63	2584.00
281.10	2582.00
281.57	2585.00
282.04	2586.00
282.50	2585.00
282.97	2586.00
283.44	2580.00
283.91	2586.00
284.38	2578.00
284.85	2581.00
285.31	2581.00
285.78	2578.00
286.25	2576.00
286.72	2587.00
287.19	2577.00
287.65	2577.00
288.12	2580.00
288.59	2592.00
289.06	2577.00
289.53	2578.00
289.99	2579.00
290.46	2585.00
290.93	2574.00
291.40	2585.00
291.87	2582.00
292.33	2578.00
292.80	2576.00
293.27	2579.00
293.74	2579.00
294.21	2580.00
294.67	2580.00
295.14	2582.00
295.61	2582.00
296.08	2579.00
296.54	2588.00
297.01	2580.00
297.48	2581.00
297.95	2582.00
298.42	2590.00
298.88	2586.00
299.35	2581.00
299.82	2585.00
300.29	2579.00
300.75	2580.00
301.22	2586.00
301.69	2595.00
302.16	2584.00
302.62	2580.00
303.09	2582.00
303.56	2582.00
304.03	2585.00
304.49	2586.00
304.96	2583.00
305.43	2584.00
305.90	2581.00
306.36	2581.00
306.83	2591.00
307.30	2586.00
307.76	2601.00
308.23	2602.00
308.70	2592.00
309.17	2601.00
309.63	2592.00
310.10	2590.00
310.57	2605.00
311.03	2605.00
311.50	2604.00
311.97	2605.00
312.44	2615.00
312.90	2616.00
313.37	2626.00
313.84	2617.00
314.30	2631.00
314.77	2629.00
315.24	2624.00
315.70	2621.00
316.17	2627.00
316.64	2638.00
317.10	2653.00
317.57	2647.00
318.04	2655.00
318.50	2652.00
318.97	2659.00
319.44	2671.00
319.90	2666.00
320.37	2672.00
320.84	2674.00
321.30	2673.00
321.77	2670.00
322.24	2678.00
322.70	2675.00
323.17	2666.00
323.64	2687.00
324.10	2686.00
324.57	2695.00
325.04	2703.00
325.50	2722.00
325.97	2718.00
326.44	2756.00
326.90	2761.00
327.37	2742.00
327.84	2742.00
328.30	2754.00
328.77	2754.00
329.23	2752.00
329.70	2778.00
330.17	2796.00
330.63	2785.00
331.10	2755.00
331.56	2778.00
332.03	2779.00
332.50	2791.00
332.96	2782.00
333.43	2789.00
333.90	2777.00
334.36	2781.00
334.83	2782.00
335.29	2787.00
335.76	2766.00
336.22	2763.00
336.69	2757.00
337.16	2745.00
337.62	2764.00
338.09	2780.00
338.55	2788.00
339.02	2802.00
339.49	2806.00
339.95	2828.00
340.42	2825.00
340.88	2822.00
341.35	2798.00
341.81	2815.00
342.28	2825.00
342.75	2829.00
343.21	2834.00
343.68	2805.00
344.14	2806.00
344.61	2776.00
345.07	2811.00
345.54	2834.00
346.00	2817.00
346.47	2823.00
346.93	2828.00
347.40	2852.00
347.87	2838.00
348.33	2841.00
348.80	2857.00
349.26	2844.00
349.73	2850.00
350.19	2881.00
350.66	2890.00
351.12	2889.00
351.59	2855.00
352.05	2875.00
352.52	2869.00
352.98	2874.00
353.45	2906.00
353.91	2911.00
354.38	2911.00
354.84	2915.00
355.31	2901.00
355.77	2913.00
356.24	2874.00
356.70	2872.00
357.17	2831.00
357.63	2839.00
358.10	2826.00
358.56	2821.00
359.03	2829.00
359.49	2912.00
359.96	2945.00
360.42	2900.00
360.89	2897.00
361.35	2875.00
361.82	2887.00
362.28	2895.00
362.75	2927.00
363.21	2948.00
363.67	2915.00
364.14	2924.00
364.60	2919.00
365.07	2960.00
365.53	2958.00
366.00	3004.00
366.46	2995.00
366.93	2987.00
367.39	2990.00
367.86	3001.00
368.32	2963.00
368.78	2975.00
369.25	2991.00
369.71	3017.00
370.18	2993.00
370.64	2995.00
371.11	2969.00
371.57	2979.00
372.03	3010.00
372.50	2958.00
372.96	2958.00
373.43	2943.00
373.89	2925.00
374.35	2931.00
374.82	2960.00
375.28	2929.00
375.75	3020.00
376.21	3033.00
376.67	3006.00
377.14	3051.00
377.60	3074.00
378.07	3115.00
378.53	3090.00
378.99	3079.00
379.46	3039.00
379.92	3015.00
380.39	3025.00
380.85	3047.00
381.31	3054.00
381.78	2985.00
382.24	2964.00
382.70	2942.00
383.17	2919.00
383.63	2934.00
384.09	2941.00
384.56	2975.00
385.02	3046.00
385.48	3037.00
385.95	3043.00
386.41	3028.00
386.88	3048.00
387.34	3040.00
387.80	3051.00
388.27	3055.00
388.73	3063.00
389.19	3114.00
389.66	3128.00
390.12	3195.00
390.58	3193.00
391.05	3192.00
391.51	3183.00
391.97	3142.00
392.43	3104.00
392.90	3038.00
393.36	2992.00
393.82	2969.00
394.29	3061.00
394.75	3146.00
395.21	3177.00
395.68	3197.00
396.14	3187.00
396.60	3106.00
397.07	3059.00
397.53	3122.00
397.99	3276.00
398.45	3360.00
398.92	3451.00
399.38	3479.00
399.84	3474.00
400.31	3528.00
400.77	3546.00
401.23	3530.00
401.69	3571.00
402.16	3589.00
402.62	3576.00
403.08	3560.00
403.54	3547.00
404.01	3567.00
404.47	3581.00
404.93	3557.00
405.39	3551.00
405.86	3596.00
406.32	3590.00
406.78	3529.00
407.24	3569.00
407.71	3613.00
408.17	3584.00
408.63	3597.00
409.09	3648.00
409.56	3635.00
410.02	3612.00
410.48	3602.00
410.94	3600.00
411.40	3695.00
411.87	3735.00
412.33	3714.00
412.79	3722.00
413.25	3728.00
413.71	3683.00
414.18	3733.00
414.64	3757.00
415.10	3753.00
415.56	3740.00
416.02	3760.00
416.49	3714.00
416.95	3750.00
417.41	3722.00
417.87	3748.00
418.33	3737.00
418.80	3731.00
419.26	3772.00
419.72	3792.00
420.18	3770.00
420.64	3759.00
421.10	3827.00
421.57	3857.00
422.03	3794.00
422.49	3770.00
422.95	3755.00
423.41	3781.00
423.87	3831.00
424.34	3787.00
424.80	3794.00
425.26	3827.00
425.72	3811.00
426.18	3771.00
426.64	3774.00
427.10	3796.00
427.57	3744.00
428.03	3761.00
428.49	3755.00
428.95	3689.00
429.41	3655.00
429.87	3635.00
430.33	3596.00
430.79	3609.00
431.26	3675.00
431.72	3800.00
432.18	3908.00
432.64	3855.00
433.10	3849.00
433.56	3913.00
434.02	3897.00
434.48	3892.00
434.94	3921.00
435.40	3983.00
435.87	4012.00
436.33	4083.00
436.79	4017.00
437.25	4018.00
437.71	3966.00
438.17	3976.00
438.63	3941.00
439.09	3927.00
439.55	4033.00
440.01	4096.00
440.47	4020.00
440.93	4092.00
441.39	4148.00
441.85	4212.00
442.32	4140.00
442.78	4214.00
443.24	4208.00
443.70	4230.00
444.16	4168.00
444.62	4218.00
445.08	4237.00
445.54	4246.00
446.00	4188.00
446.46	4218.00
446.92	4250.00
447.38	4303.00
447.84	4360.00
448.30	4363.00
448.76	4354.00
449.22	4362.00
449.68	4439.00
450.14	4455.00
450.60	4399.00
451.06	4461.00
451.52	4446.00
451.98	4368.00
452.44	4339.00
452.90	4354.00
453.36	4353.00
453.82	4378.00
454.28	4458.00
454.74	4435.00
455.20	4430.00
455.66	4413.00
456.12	4455.00
456.58	4445.00
457.04	4462.00
457.50	4431.00
457.96	4488.00
458.42	4462.00
458.88	4455.00
459.34	4483.00
459.80	4548.00
460.26	4508.00
460.72	4548.00
461.18	4553.00
461.64	4600.00
462.10	4588.00
462.55	4560.00
463.01	4577.00
463.47	4559.00
463.93	4569.00
464.39	4576.00
464.85	4541.00
465.31	4563.00
465.77	4532.00
466.23	4569.00
466.69	4557.00
467.15	4524.00
467.61	4512.00
468.07	4585.00
468.52	4594.00
468.98	4577.00
469.44	4558.00
469.90	4533.00
470.36	4560.00
470.82	4568.00
471.28	4555.00
471.74	4636.00
472.20	4669.00
472.66	4620.00
473.11	4676.00
473.57	4630.00
474.03	4706.00
474.49	4681.00
474.95	4660.00
475.41	4680.00
475.87	4658.00
476.33	4651.00
476.78	4694.00
477.24	4692.00
477.70	4703.00
478.16	4720.00
478.62	4811.00
479.08	4702.00
479.54	4781.00
479.99	4788.00
480.45	4753.00
480.91	4804.00
481.37	4778.00
481.83	4756.00
482.29	4790.00
482.74	4759.00
483.20	4781.00
483.66	4776.00
484.12	4739.00
484.58	4666.00
485.04	4636.00
485.49	4556.00
485.95	4527.00
486.41	4493.00
486.87	4544.00
487.33	4588.00
487.78	4686.00
488.24	4697.00
488.70	4737.00
489.16	4755.00
489.62	4759.00
490.07	4793.00
490.53	4827.00
490.99	4739.00
491.45	4719.00
491.90	4743.00
492.36	4725.00
492.82	4770.00
493.28	4841.00
493.74	4805.00
494.19	4860.00
494.65	4849.00
495.11	4828.00
495.57	4853.00
496.02	4880.00
496.48	4803.00
496.94	4830.00
497.40	4855.00
497.85	4856.00
498.31	4783.00
498.77	4800.00
499.23	4802.00
499.68	4815.00
500.14	4748.00
500.60	4703.00
501.06	4730.00
501.51	4757.00
501.97	4727.00
502.43	4777.00
502.88	4851.00
503.34	4741.00
503.80	4820.00
504.26	4810.00
504.71	4794.00
505.17	4852.00
505.63	4941.00
506.08	4887.00
506.54	4972.00
507.00	4871.00
507.45	4882.00
507.91	4899.00
508.37	4887.00
508.82	4879.00
509.28	4849.00
509.74	4908.00
510.19	4877.00
510.65	4913.00
511.11	4924.00
511.56	4961.00
512.02	4929.00
512.48	4934.00
512.93	4885.00
513.39	4931.00
513.85	4918.00
514.30	4894.00
514.76	4871.00
515.22	4919.00
515.67	4855.00
516.13	4767.00
516.59	4706.00
517.04	4721.00
517.50	4672.00
517.95	4645.00
518.41	4797.00
518.87	4823.00
519.32	4844.00
519.78	4885.00
520.24	4926.00
520.69	4979.00
521.15	4950.00
521.60	4981.00
522.06	4988.00
522.52	4938.00
522.97	4974.00
523.43	4968.00
523.88	5022.00
524.34	5036.00
524.80	5048.00
525.25	5039.00
525.71	4981.00
526.16	4922.00
526.62	4864.00
527.07	4885.00
527.53	4891.00
527.99	5007.00
528.44	5060.00
528.90	5088.00
529.35	5177.00
529.81	5142.00
530.26	5108.00
530.72	5149.00
531.17	5118.00
531.63	5117.00
532.09	5065.00
532.54	5042.00
533.00	5047.00
533.45	5033.00
533.91	5101.00
534.36	5091.00
534.82	5137.00
535.27	5123.00
535.73	5165.00
536.18	5123.00
536.64	5139.00
537.09	5112.00
537.55	5121.00
538.00	5093.00
538.46	5117.00
538.91	5068.00
539.37	5074.00
539.82	5062.00
540.28	5032.00
540.73	5091.00
541.19	5000.00
541.64	5049.00
542.10	5108.00
542.55	5058.00
543.01	5115.00
543.46	5141.00
543.92	5110.00
544.37	5129.00
544.83	5147.00
545.28	5108.00
545.74	5165.00
546.19	5156.00
546.64	5153.00
547.10	5202.00
547.55	5071.00
548.01	5153.00
548.46	5155.00
548.92	5164.00
549.37	5173.00
549.83	5137.00
550.28	5171.00
550.73	5153.00
551.19	5192.00
551.64	5181.00
552.10	5206.00
552.55	5224.00
553.00	5188.00
553.46	5228.00
553.91	5207.00
554.37	5258.00
554.82	5249.00
555.28	5228.00
555.73	5209.00
556.18	5162.00
556.64	5157.00
557.09	5203.00
557.54	5129.00
558.00	5120.00
558.45	5106.00
558.91	5091.00
559.36	5082.00
559.81	5130.00
560.27	5136.00
560.72	5139.00
561.17	5176.00
561.63	5239.00
562.08	5121.00
562.54	5170.00
562.99	5144.00
563.44	5205.00
563.90	5174.00
564.35	5158.00
564.80	5229.00
565.26	5104.00
565.71	5123.00
566.16	5110.00
566.62	5092.00
567.07	5248.00
567.52	5163.00
567.98	5163.00
568.43	5145.00
568.88	5104.00
569.34	5127.00
569.79	5169.00
570.24	5137.00
570.69	5072.00
571.15	5131.00
571.60	5143.00
572.05	5161.00
572.51	5141.00
572.96	5199.00
573.41	5107.00
573.86	5178.00
574.32	5218.00
574.77	5144.00
575.22	5121.00
575.68	5142.00
576.13	5145.00
576.58	5106.00
577.03	5208.00
577.49	5170.00
577.94	5135.00
578.39	5094.00
578.84	5142.00
579.30	5140.00
579.75	5209.00
580.20	5237.00
580.65	5209.00
581.11	5232.00
581.56	5268.00
582.01	5244.00
582.46	5302.00
582.92	5285.00
583.37	5307.00
583.82	5330.00
584.27	5272.00
584.72	5234.00
585.18	5264.00
585.63	5224.00
586.08	5262.00
586.53	5240.00
586.98	5207.00
587.44	5279.00
587.89	5209.00
588.34	5143.00
588.79	4977.00
589.24	4961.00
589.70	4964.00
590.15	5040.00
590.60	5101.00
591.05	5180.00
591.50	5102.00
591.96	5189.00
592.41	5130.00
592.86	5217.00
593.31	5199.00
593.76	5189.00
594.21	5191.00
594.66	5159.00
595.12	5131.00
595.57	5173.00
596.02	5171.00
596.47	5192.00
596.92	5175.00
597.37	5175.00
597.82	5177.00
598.28	5157.00
598.73	5200.00
599.18	5212.00
599.63	5211.00
600.08	5177.00
600.53	5171.00
600.98	5194.00
601.43	5172.00
601.88	5171.00
602.34	5164.00
602.79	5203.00
603.24	5230.00
603.69	5304.00
604.14	5227.00
604.59	5271.00
605.04	5293.00
605.49	5242.00
605.94	5261.00
606.39	5213.00
606.84	5303.00
607.30	5240.00
607.75	5268.00
608.20	5254.00
608.65	5320.00
609.10	5182.00
609.55	5232.00
610.00	5277.00
610.45	5268.00
610.90	5274.00
611.35	5270.00
611.80	5272.00
612.25	5198.00
612.70	5209.00
613.15	5224.00
613.60	5178.00
614.05	5252.00
614.50	5252.00
614.95	5239.00
615.40	5231.00
615.85	5207.00
616.30	5195.00
616.75	5131.00
617.20	5201.00
617.65	5171.00
618.10	5294.00
618.55	5249.00
619.00	5184.00
619.45	5250.00
619.90	5238.00
620.35	5235.00
620.80	5267.00
621.25	5281.00
621.70	5200.00
622.15	5252.00
622.60	5268.00
623.05	5173.00
623.50	5250.00
623.95	5205.00
624.40	5163.00
624.85	5191.00
625.30	5226.00
625.75	5181.00
626.20	5162.00
626.65	5217.00
627.10	5221.00
627.55	5170.00
627.99	5096.00
628.44	5099.00
628.89	5106.00
629.34	5157.00
629.79	5133.00
630.24	5163.00
630.69	5186.00
631.14	5145.00
631.59	5196.00
632.04	5131.00
632.49	5254.00
632.94	5251.00
633.38	5236.00
633.83	5180.00
634.28	5230.00
634.73	5257.00
635.18	5346.00
635.63	5213.00
636.08	5300.00
636.53	5276.00
636.97	5296.00
637.42	5326.00
637.87	5364.00
638.32	5340.00
638.77	5350.00
639.22	5315.00
639.67	5308.00
640.11	5271.00
640.56	5298.00
641.01	5265.00
641.46	5258.00
641.91	5296.00
642.36	5365.00
642.81	5303.00
643.25	5362.00
643.70	5293.00
644.15	5314.00
644.60	5325.00
645.05	5242.00
645.49	5362.00
645.94	5223.00
646.39	5248.00
646.84	5229.00
647.29	5169.00
647.73	5182.00
648.18	5223.00
648.63	5298.00
649.08	5212.00
649.53	5087.00
649.97	5203.00
650.42	5231.00
650.87	5294.00
651.32	5298.00
651.77	5245.00
652.21	5200.00
652.66	5254.00
653.11	5222.00
653.56	5253.00
654.00	5283.00
654.45	5260.00
654.90	5167.00
655.35	5094.00
655.79	4981.00
656.24	4861.00
656.69	4852.00
657.14	4955.00
657.58	5107.00
658.03	5226.00
658.48	5290.00
658.92	5250.00
659.37	5238.00
659.82	5287.00
660.27	5295.00
660.71	5246.00
661.16	5272.00
661.61	5292.00
662.05	5298.00
662.50	5336.00
662.95	5290.00
663.39	5265.00
663.84	5306.00
664.29	5249.00
664.74	5282.00
665.18	5337.00
665.63	5310.00
666.08	5254.00
666.52	5250.00
666.97	5274.00
667.42	5283.00
667.86	5271.00
668.31	5268.00
668.76	5313.00
669.20	5295.00
669.65	5240.00
670.09	5283.00
670.54	5250.00
670.99	5250.00
671.43	5280.00
671.88	5237.00
672.33	5212.00
672.77	5270.00
673.22	5318.00
673.66	5312.00
674.11	5260.00
674.56	5264.00
675.00	5207.00
675.45	5262.00
675.90	5287.00
676.34	5282.00
676.79	5242.00
677.23	5301.00
677.68	5225.00
678.12	5237.00
678.57	5242.00
679.02	5295.00
679.46	5302.00
679.91	5289.00
680.35	5238.00
680.80	5199.00
681.25	5218.00
681.69	5247.00
682.14	5234.00
682.58	5244.00
683.03	5207.00
683.47	5228.00
683.92	5230.00
684.36	5172.00
684.81	5190.00
685.25	5122.00
685.70	5196.00
686.15	5115.00
686.59	4832.00
687.04	4539.00
687.48	4403.00
687.93	4513.00
688.37	4714.00
688.82	4734.00
689.26	4714.00
689.71	4722.00
690.15	4736.00
690.60	4782.00
691.04	4879.00
691.49	4896.00
691.93	4966.00
692.38	4939.00
692.82	4992.00
693.27	4939.00
693.71	4891.00
694.16	4859.00
694.60	4877.00
695.04	4948.00
695.49	4966.00
695.93	5013.00
696.38	4989.00
696.82	5083.00
697.27	5044.00
697.71	5047.00
698.16	5020.00
698.60	5054.00
699.04	5022.00
699.49	4935.00
699.93	4958.00
700.38	4961.00
700.82	4937.00
701.27	4938.00
701.71	4953.00
702.15	4976.00
702.60	4893.00
703.04	4937.00
703.49	4982.00
703.93	5015.00
704.37	5025.00
704.82	5093.00
705.26	5027.00
705.71	4966.00
706.15	4996.00
706.59	5028.00
707.04	5035.00
707.48	4973.00
707.93	5057.00
708.37	4984.00
708.81	5027.00
709.26	5004.00
709.70	5063.00
710.14	5004.00
710.59	5054.00
711.03	5021.00
711.47	5055.00
711.92	5006.00
712.36	4978.00
712.80	4968.00
713.25	4984.00
713.69	4999.00
714.13	4975.00
714.58	4944.00
715.02	4930.00
715.46	4864.00
715.91	4887.00
716.35	4853.00
716.79	4688.00
717.24	4533.00
717.68	4446.00
718.12	4378.00
718.57	4299.00
719.01	4288.00
719.45	4287.00
719.89	4314.00
720.34	4308.00
720.78	4393.00
721.22	4552.00
721.66	4678.00
722.11	4691.00
722.55	4672.00
722.99	4625.00
723.44	4483.00
723.88	4414.00
724.32	4402.00
724.76	4431.00
725.21	4379.00
725.65	4434.00
726.09	4450.00
726.53	4481.00
726.97	4480.00
727.42	4447.00
727.86	4431.00
728.30	4456.00
728.74	4461.00
729.19	4431.00
729.63	4503.00
730.07	4504.00
730.51	4437.00
730.95	4498.00
731.40	4535.00
731.84	4565.00
732.28	4591.00
732.72	4687.00
733.16	4687.00
733.61	4724.00
734.05	4752.00
734.49	4762.00
734.93	4791.00
735.37	4716.00
735.81	4714.00
736.26	4704.00
736.70	4710.00
737.14	4723.00
737.58	4763.00
738.02	4743.00
738.46	4742.00
738.90	4720.00
739.35	4686.00
739.79	4751.00
740.23	4784.00
740.67	4754.00
741.11	4714.00
741.55	4697.00
741.99	4744.00
742.44	4765.00
742.88	4765.00
743.32	4759.00
743.76	4795.00
744.20	4793.00
744.64	4789.00
745.08	4810.00
745.52	4833.00
745.96	4818.00
746.40	4807.00
746.84	4792.00
747.29	4787.00
747.73	4803.00
748.17	4807.00
748.61	4803.00
749.05	4797.00
749.49	4746.00
749.93	4797.00
750.37	4817.00
750.81	4815.00
751.25	4817.00
751.69	4769.00
752.13	4775.00
752.57	4809.00
753.01	4778.00
753.45	4779.00
753.89	4785.00
754.33	4784.00
754.77	4816.00
755.21	4818.00
755.65	4794.00
756.09	4823.00
756.53	4801.00
756.97	4806.00
757.41	4808.00
757.85	4754.00
758.29	4682.00
758.73	4685.00
759.17	4497.00
759.61	3925.00
760.05	3314.00
760.49	2990.00
760.93	2929.00
761.37	3119.00
761.81	3476.00
762.25	3624.00
762.69	3465.00
763.13	3365.00
763.57	3371.00
764.01	3451.00
764.45	3524.00
764.89	3739.00
765.33	3818.00
765.77	4011.00
766.21	4112.00
766.65	4231.00
767.09	4399.00
767.53	4463.00
767.96	4529.00
768.40	4569.00
768.84	4637.00
769.28	4580.00
769.72	4610.00
770.16	4624.00
770.60	4689.00
771.04	4715.00
771.48	4665.00
771.92	4690.00
772.35	4733.00
772.79	4604.00
773.23	4734.00
773.67	4713.00
774.11	4684.00
774.55	4604.00
774.99	4628.00
775.43	4658.00
775.86	4648.00
776.30	4713.00
776.74	4676.00
777.18	4694.00
777.62	4706.00
778.06	4647.00
778.50	4640.00
778.93	4625.00
779.37	4658.00
779.81	4600.00
780.25	4590.00
780.69	4596.00
781.12	4608.00
781.56	4626.00
782.00	4599.00
782.44	4662.00
782.88	4663.00
783.32	4654.00
783.75	4631.00
784.19	4603.00
784.63	4620.00
785.07	4540.00
785.50	4587.00
785.94	4595.00
786.38	4540.00
786.82	4537.00
787.26	4493.00
787.69	4531.00
788.13	4496.00
