SpectraSuite Data File
++++++++++++++++++++++++++++++++++++
Date: Thu Aug 05 10:45:32 EEST 2021
User: CanSEE
Dark Spectrum Present: No
Reference Spectrum Present: No
Number of Sampled Component Spectra: 1
Spectrometers: MAYP112785
Integration Time (usec): 10000 (MAYP112785)
Spectra Averaged: 1 (MAYP112785)
Boxcar Smoothing: 0 (MAYP112785)
Correct for Electrical Dark: No (MAYP112785)
Strobe/Lamp Enabled: No (MAYP112785)
Correct for Detector Non-linearity: No (MAYP112785)
Correct for Stray Light: No (MAYP112785)
Number of Pixels in Processed Spectrum: 2068
>>>>>Begin Processed Spectral Data<<<<<
198.35	3480.00
198.82	2484.00
199.30	2589.00
199.77	2571.00
200.24	2596.00
200.71	2604.00
201.18	2597.00
201.65	2616.00
202.13	2608.00
202.60	2609.00
203.07	2610.00
203.54	2601.00
204.01	2609.00
204.48	2607.00
204.96	2606.00
205.43	2600.00
205.90	2610.00
206.37	2609.00
206.84	2607.00
207.31	2608.00
207.78	2599.00
208.26	2601.00
208.73	2604.00
209.20	2611.00
209.67	2605.00
210.14	2608.00
210.61	2606.00
211.08	2608.00
211.56	2605.00
212.03	2605.00
212.50	2600.00
212.97	2599.00
213.44	2600.00
213.91	2608.00
214.38	2602.00
214.85	2601.00
215.33	2602.00
215.80	2605.00
216.27	2604.00
216.74	2604.00
217.21	2606.00
217.68	2610.00
218.15	2607.00
218.62	2611.00
219.09	2602.00
219.57	2603.00
220.04	2601.00
220.51	2609.00
220.98	2600.00
221.45	2607.00
221.92	2603.00
222.39	2609.00
222.86	2607.00
223.33	2607.00
223.80	2608.00
224.27	2599.00
224.74	2603.00
225.22	2606.00
225.69	2601.00
226.16	2606.00
226.63	2607.00
227.10	2606.00
227.57	2607.00
228.04	2606.00
228.51	2612.00
228.98	2597.00
229.45	2608.00
229.92	2607.00
230.39	2610.00
230.86	2604.00
231.33	2603.00
231.80	2607.00
232.27	2606.00
232.75	2607.00
233.22	2605.00
233.69	2605.00
234.16	2600.00
234.63	2611.00
235.10	2611.00
235.57	2606.00
236.04	2603.00
236.51	2604.00
236.98	2605.00
237.45	2608.00
237.92	2606.00
238.39	2597.00
238.86	2607.00
239.33	2668.00
239.80	2608.00
240.27	2603.00
240.74	2606.00
241.21	2604.00
241.68	2602.00
242.15	2605.00
242.62	2601.00
243.09	2612.00
243.56	2603.00
244.03	2605.00
244.50	2609.00
244.97	2605.00
245.44	2618.00
245.91	2606.00
246.38	2607.00
246.85	2614.00
247.32	2607.00
247.79	2611.00
248.26	2614.00
248.73	2611.00
249.20	2615.00
249.67	2607.00
250.14	2606.00
250.61	2603.00
251.08	2613.00
251.55	2609.00
252.02	2605.00
252.49	2610.00
252.96	2603.00
253.43	2604.00
253.90	2613.00
254.37	2612.00
254.84	2604.00
255.31	2612.00
255.77	2609.00
256.24	2608.00
256.71	2609.00
257.18	2609.00
257.65	2607.00
258.12	2604.00
258.59	2614.00
259.06	2605.00
259.53	2605.00
260.00	2607.00
260.47	2611.00
260.94	2609.00
261.41	2603.00
261.88	2610.00
262.35	2606.00
262.81	2607.00
263.28	2615.00
263.75	2613.00
264.22	2610.00
264.69	2612.00
265.16	2602.00
265.63	2605.00
266.10	2613.00
266.57	2611.00
267.04	2608.00
267.51	2603.00
267.97	2606.00
268.44	2602.00
268.91	2607.00
269.38	2609.00
269.85	2608.00
270.32	2612.00
270.79	2605.00
271.26	2612.00
271.73	2603.00
272.19	2609.00
272.66	2603.00
273.13	2608.00
273.60	2607.00
274.07	2609.00
274.54	2603.00
275.01	2609.00
275.48	2605.00
275.94	2607.00
276.41	2617.00
276.88	2614.00
277.35	2603.00
277.82	2616.00
278.29	2610.00
278.76	2612.00
279.22	2604.00
279.69	2605.00
280.16	2605.00
280.63	2608.00
281.10	2605.00
281.57	2601.00
282.04	2608.00
282.50	2606.00
282.97	2607.00
283.44	2613.00
283.91	2607.00
284.38	2600.00
284.85	2611.00
285.31	2603.00
285.78	2609.00
286.25	2607.00
286.72	2604.00
287.19	2614.00
287.65	2607.00
288.12	2615.00
288.59	2604.00
289.06	2603.00
289.53	2606.00
289.99	2606.00
290.46	2604.00
290.93	2610.00
291.40	2609.00
291.87	2605.00
292.33	2606.00
292.80	2608.00
293.27	2614.00
293.74	2609.00
294.21	2607.00
294.67	2605.00
295.14	2605.00
295.61	2601.00
296.08	2606.00
296.54	2606.00
297.01	2600.00
297.48	2608.00
297.95	2604.00
298.42	2607.00
298.88	2606.00
299.35	2608.00
299.82	2609.00
300.29	2606.00
300.75	2606.00
301.22	2603.00
301.69	2611.00
302.16	2607.00
302.62	2602.00
303.09	2612.00
303.56	2609.00
304.03	2608.00
304.49	2615.00
304.96	2611.00
305.43	2614.00
305.90	2613.00
306.36	2619.00
306.83	2615.00
307.30	2618.00
307.76	2618.00
308.23	2620.00
308.70	2620.00
309.17	2622.00
309.63	2635.00
310.10	2630.00
310.57	2638.00
311.03	2632.00
311.50	2654.00
311.97	2644.00
312.44	2652.00
312.90	2656.00
313.37	2654.00
313.84	2668.00
314.30	2651.00
314.77	2660.00
315.24	2660.00
315.70	2667.00
316.17	2672.00
316.64	2685.00
317.10	2684.00
317.57	2700.00
318.04	2690.00
318.50	2690.00
318.97	2700.00
319.44	2692.00
319.90	2700.00
320.37	2714.00
320.84	2721.00
321.30	2706.00
321.77	2712.00
322.24	2712.00
322.70	2724.00
323.17	2723.00
323.64	2722.00
324.10	2752.00
324.57	2763.00
325.04	2769.00
325.50	2758.00
325.97	2775.00
326.44	2798.00
326.90	2800.00
327.37	2799.00
327.84	2795.00
328.30	2803.00
328.77	2813.00
329.23	2819.00
329.70	2847.00
330.17	2835.00
330.63	2863.00
331.10	2825.00
331.56	2831.00
332.03	2839.00
332.50	2831.00
332.96	2831.00
333.43	2817.00
333.90	2813.00
334.36	2818.00
334.83	2833.00
335.29	2828.00
335.76	2848.00
336.22	2819.00
336.69	2795.00
337.16	2833.00
337.62	2829.00
338.09	2836.00
338.55	2861.00
339.02	2852.00
339.49	2874.00
339.95	2865.00
340.42	2880.00
340.88	2881.00
341.35	2865.00
341.81	2891.00
342.28	2890.00
342.75	2901.00
343.21	2874.00
343.68	2882.00
344.14	2871.00
344.61	2843.00
345.07	2873.00
345.54	2912.00
346.00	2909.00
346.47	2892.00
346.93	2902.00
347.40	2929.00
347.87	2891.00
348.33	2911.00
348.80	2884.00
349.26	2926.00
349.73	2914.00
350.19	2922.00
350.66	2957.00
351.12	2946.00
351.59	2932.00
352.05	2939.00
352.52	2909.00
352.98	2924.00
353.45	2968.00
353.91	2983.00
354.38	2983.00
354.84	2989.00
355.31	2981.00
355.77	2966.00
356.24	2946.00
356.70	2948.00
357.17	2903.00
357.63	2913.00
358.10	2918.00
358.56	2899.00
359.03	2929.00
359.49	2958.00
359.96	2983.00
360.42	2994.00
360.89	2973.00
361.35	2956.00
361.82	2976.00
362.28	2966.00
362.75	3000.00
363.21	3001.00
363.67	3005.00
364.14	3005.00
364.60	3038.00
365.07	3018.00
365.53	3040.00
366.00	3080.00
366.46	3114.00
366.93	3095.00
367.39	3085.00
367.86	3076.00
368.32	3068.00
368.78	3078.00
369.25	3094.00
369.71	3128.00
370.18	3101.00
370.64	3108.00
371.11	3078.00
371.57	3099.00
372.03	3090.00
372.50	3050.00
372.96	3022.00
373.43	3045.00
373.89	3016.00
374.35	3011.00
374.82	3045.00
375.28	3059.00
375.75	3088.00
376.21	3099.00
376.67	3113.00
377.14	3139.00
377.60	3188.00
378.07	3228.00
378.53	3250.00
378.99	3204.00
379.46	3152.00
379.92	3141.00
380.39	3139.00
380.85	3148.00
381.31	3140.00
381.78	3130.00
382.24	3074.00
382.70	3032.00
383.17	2977.00
383.63	3010.00
384.09	3044.00
384.56	3100.00
385.02	3154.00
385.48	3138.00
385.95	3141.00
386.41	3111.00
386.88	3154.00
387.34	3177.00
387.80	3146.00
388.27	3199.00
388.73	3207.00
389.19	3240.00
389.66	3285.00
390.12	3344.00
390.58	3328.00
391.05	3292.00
391.51	3349.00
391.97	3288.00
392.43	3221.00
392.90	3184.00
393.36	3058.00
393.82	3093.00
394.29	3166.00
394.75	3266.00
395.21	3316.00
395.68	3321.00
396.14	3329.00
396.60	3245.00
397.07	3182.00
397.53	3239.00
397.99	3425.00
398.45	3560.00
398.92	3632.00
399.38	3684.00
399.84	3714.00
400.31	3716.00
400.77	3743.00
401.23	3795.00
401.69	3762.00
402.16	3770.00
402.62	3790.00
403.08	3802.00
403.54	3756.00
404.01	3793.00
404.47	3778.00
404.93	3767.00
405.39	3770.00
405.86	3767.00
406.32	3772.00
406.78	3733.00
407.24	3809.00
407.71	3834.00
408.17	3849.00
408.63	3869.00
409.09	3911.00
409.56	3889.00
410.02	3843.00
410.48	3809.00
410.94	3832.00
411.40	3988.00
411.87	3958.00
412.33	3962.00
412.79	3976.00
413.25	3969.00
413.71	3946.00
414.18	4009.00
414.64	3994.00
415.10	3975.00
415.56	3998.00
416.02	4014.00
416.49	4040.00
416.95	4089.00
417.41	4024.00
417.87	3997.00
418.33	3947.00
418.80	3995.00
419.26	3991.00
419.72	4005.00
420.18	4061.00
420.64	3994.00
421.10	4097.00
421.57	4084.00
422.03	4075.00
422.49	4057.00
422.95	4028.00
423.41	4051.00
423.87	4072.00
424.34	4077.00
424.80	4077.00
425.26	4061.00
425.72	4070.00
426.18	4065.00
426.64	4040.00
427.10	4045.00
427.57	4025.00
428.03	4027.00
428.49	4061.00
428.95	3976.00
429.41	3919.00
429.87	3879.00
430.33	3851.00
430.79	3820.00
431.26	3909.00
431.72	4009.00
432.18	4208.00
432.64	4175.00
433.10	4176.00
433.56	4201.00
434.02	4178.00
434.48	4154.00
434.94	4242.00
435.40	4295.00
435.87	4307.00
436.33	4392.00
436.79	4369.00
437.25	4326.00
437.71	4293.00
438.17	4273.00
438.63	4278.00
439.09	4208.00
439.55	4300.00
440.01	4351.00
440.47	4396.00
440.93	4407.00
441.39	4465.00
441.85	4530.00
442.32	4532.00
442.78	4586.00
443.24	4579.00
443.70	4577.00
444.16	4587.00
444.62	4560.00
445.08	4597.00
445.54	4553.00
446.00	4528.00
446.46	4611.00
446.92	4587.00
447.38	4627.00
447.84	4754.00
448.30	4720.00
448.76	4709.00
449.22	4748.00
449.68	4780.00
450.14	4847.00
450.60	4923.00
451.06	4912.00
451.52	4910.00
451.98	4841.00
452.44	4760.00
452.90	4738.00
453.36	4693.00
453.82	4730.00
454.28	4827.00
454.74	4824.00
455.20	4857.00
455.66	4862.00
456.12	4912.00
456.58	4946.00
457.04	4875.00
457.50	4941.00
457.96	4899.00
458.42	4890.00
458.88	4859.00
459.34	4913.00
459.80	4946.00
460.26	4965.00
460.72	4963.00
461.18	5023.00
461.64	4994.00
462.10	5003.00
462.55	5019.00
463.01	5027.00
463.47	5030.00
463.93	4969.00
464.39	4945.00
464.85	4978.00
465.31	5003.00
465.77	4959.00
466.23	5064.00
466.69	4984.00
467.15	4923.00
467.61	4977.00
468.07	5045.00
468.52	5014.00
468.98	5011.00
469.44	5000.00
469.90	5013.00
470.36	5008.00
470.82	4969.00
471.28	5057.00
471.74	5115.00
472.20	5099.00
472.66	5112.00
473.11	5089.00
473.57	5099.00
474.03	5146.00
474.49	5127.00
474.95	5157.00
475.41	5154.00
475.87	5181.00
476.33	5146.00
476.78	5138.00
477.24	5164.00
477.70	5248.00
478.16	5237.00
478.62	5185.00
479.08	5179.00
479.54	5200.00
479.99	5236.00
480.45	5290.00
480.91	5271.00
481.37	5255.00
481.83	5316.00
482.29	5287.00
482.74	5278.00
483.20	5259.00
483.66	5232.00
484.12	5204.00
484.58	5227.00
485.04	5135.00
485.49	5044.00
485.95	4976.00
486.41	4901.00
486.87	4954.00
487.33	5064.00
487.78	5107.00
488.24	5187.00
488.70	5201.00
489.16	5194.00
489.62	5228.00
490.07	5309.00
490.53	5301.00
490.99	5272.00
491.45	5243.00
491.90	5261.00
492.36	5199.00
492.82	5225.00
493.28	5288.00
493.74	5320.00
494.19	5380.00
494.65	5359.00
495.11	5319.00
495.57	5376.00
496.02	5378.00
496.48	5353.00
496.94	5369.00
497.40	5349.00
497.85	5318.00
498.31	5343.00
498.77	5278.00
499.23	5336.00
499.68	5299.00
500.14	5316.00
500.60	5241.00
501.06	5197.00
501.51	5308.00
501.97	5206.00
502.43	5279.00
502.88	5263.00
503.34	5312.00
503.80	5349.00
504.26	5289.00
504.71	5281.00
505.17	5363.00
505.63	5424.00
506.08	5436.00
506.54	5443.00
507.00	5363.00
507.45	5368.00
507.91	5353.00
508.37	5390.00
508.82	5346.00
509.28	5400.00
509.74	5383.00
510.19	5468.00
510.65	5454.00
511.11	5477.00
511.56	5521.00
512.02	5423.00
512.48	5496.00
512.93	5405.00
513.39	5355.00
513.85	5387.00
514.30	5372.00
514.76	5476.00
515.22	5385.00
515.67	5362.00
516.13	5302.00
516.59	5270.00
517.04	5156.00
517.50	5132.00
517.95	5156.00
518.41	5293.00
518.87	5266.00
519.32	5327.00
519.78	5455.00
520.24	5373.00
520.69	5502.00
521.15	5438.00
521.60	5531.00
522.06	5514.00
522.52	5511.00
522.97	5444.00
523.43	5532.00
523.88	5557.00
524.34	5595.00
524.80	5636.00
525.25	5595.00
525.71	5509.00
526.16	5463.00
526.62	5394.00
527.07	5412.00
527.53	5406.00
527.99	5541.00
528.44	5591.00
528.90	5656.00
529.35	5590.00
529.81	5673.00
530.26	5685.00
530.72	5729.00
531.17	5715.00
531.63	5626.00
532.09	5626.00
532.54	5627.00
533.00	5544.00
533.45	5536.00
533.91	5630.00
534.36	5629.00
534.82	5679.00
535.27	5697.00
535.73	5762.00
536.18	5722.00
536.64	5715.00
537.09	5721.00
537.55	5636.00
538.00	5713.00
538.46	5738.00
538.91	5678.00
539.37	5654.00
539.82	5658.00
540.28	5611.00
540.73	5543.00
541.19	5634.00
541.64	5647.00
542.10	5657.00
542.55	5644.00
543.01	5629.00
543.46	5708.00
543.92	5707.00
544.37	5754.00
544.83	5730.00
545.28	5713.00
545.74	5712.00
546.19	5758.00
546.64	5793.00
547.10	5711.00
547.55	5691.00
548.01	5735.00
548.46	5739.00
548.92	5728.00
549.37	5791.00
549.83	5789.00
550.28	5790.00
550.73	5801.00
551.19	5774.00
551.64	5782.00
552.10	5793.00
552.55	5798.00
553.00	5793.00
553.46	5797.00
553.91	5811.00
554.37	5802.00
554.82	5868.00
555.28	5800.00
555.73	5839.00
556.18	5785.00
556.64	5733.00
557.09	5716.00
557.54	5775.00
558.00	5732.00
558.45	5708.00
558.91	5686.00
559.36	5628.00
559.81	5657.00
560.27	5758.00
560.72	5745.00
561.17	5759.00
561.63	5769.00
562.08	5699.00
562.54	5776.00
562.99	5743.00
563.44	5760.00
563.90	5796.00
564.35	5812.00
564.80	5747.00
565.26	5730.00
565.71	5743.00
566.16	5699.00
566.62	5742.00
567.07	5728.00
567.52	5783.00
567.98	5832.00
568.43	5740.00
568.88	5726.00
569.34	5750.00
569.79	5693.00
570.24	5707.00
570.69	5651.00
571.15	5654.00
571.60	5673.00
572.05	5740.00
572.51	5782.00
572.96	5801.00
573.41	5809.00
573.86	5848.00
574.32	5781.00
574.77	5793.00
575.22	5717.00
575.68	5741.00
576.13	5770.00
576.58	5795.00
577.03	5771.00
577.49	5782.00
577.94	5727.00
578.39	5726.00
578.84	5744.00
579.30	5783.00
579.75	5807.00
580.20	5830.00
580.65	5818.00
581.11	5895.00
581.56	5843.00
582.01	5897.00
582.46	5876.00
582.92	5961.00
583.37	5947.00
583.82	5969.00
584.27	5949.00
584.72	5989.00
585.18	5907.00
585.63	5828.00
586.08	5807.00
586.53	5852.00
586.98	5805.00
587.44	5832.00
587.89	5870.00
588.34	5748.00
588.79	5584.00
589.24	5503.00
589.70	5444.00
590.15	5618.00
590.60	5704.00
591.05	5767.00
591.50	5778.00
591.96	5766.00
592.41	5749.00
592.86	5777.00
593.31	5841.00
593.76	5805.00
594.21	5729.00
594.66	5774.00
595.12	5716.00
595.57	5819.00
596.02	5811.00
596.47	5793.00
596.92	5871.00
597.37	5782.00
597.82	5760.00
598.28	5817.00
598.73	5754.00
599.18	5810.00
599.63	5869.00
600.08	5779.00
600.53	5819.00
600.98	5767.00
601.43	5806.00
601.88	5832.00
602.34	5728.00
602.79	5797.00
603.24	5845.00
603.69	5910.00
604.14	5888.00
604.59	5862.00
605.04	5890.00
605.49	5888.00
605.94	5881.00
606.39	5880.00
606.84	5906.00
607.30	5875.00
607.75	5858.00
608.20	5780.00
608.65	5937.00
609.10	5880.00
609.55	5833.00
610.00	5869.00
610.45	5853.00
610.90	5861.00
611.35	5855.00
611.80	5804.00
612.25	5869.00
612.70	5840.00
613.15	5848.00
613.60	5835.00
614.05	5845.00
614.50	5835.00
614.95	5792.00
615.40	5822.00
615.85	5776.00
616.30	5713.00
616.75	5746.00
617.20	5728.00
617.65	5793.00
618.10	5832.00
618.55	5852.00
619.00	5838.00
619.45	5915.00
619.90	5880.00
620.35	5904.00
620.80	5911.00
621.25	5922.00
621.70	5881.00
622.15	5835.00
622.60	5821.00
623.05	5790.00
623.50	5869.00
623.95	5835.00
624.40	5782.00
624.85	5790.00
625.30	5747.00
625.75	5761.00
626.20	5732.00
626.65	5780.00
627.10	5815.00
627.55	5727.00
627.99	5725.00
628.44	5723.00
628.89	5757.00
629.34	5725.00
629.79	5762.00
630.24	5724.00
630.69	5813.00
631.14	5835.00
631.59	5721.00
632.04	5772.00
632.49	5785.00
632.94	5798.00
633.38	5855.00
633.83	5790.00
634.28	5780.00
634.73	5938.00
635.18	5877.00
635.63	5879.00
636.08	5880.00
636.53	5875.00
636.97	5962.00
637.42	5921.00
637.87	5964.00
638.32	6007.00
638.77	5962.00
639.22	5974.00
639.67	5934.00
640.11	5837.00
640.56	5939.00
641.01	5878.00
641.46	5881.00
641.91	5853.00
642.36	5874.00
642.81	5906.00
643.25	5905.00
643.70	5962.00
644.15	5886.00
644.60	5955.00
645.05	6004.00
645.49	5895.00
645.94	5824.00
646.39	5822.00
646.84	5782.00
647.29	5790.00
647.73	5869.00
648.18	5805.00
648.63	5821.00
649.08	5791.00
649.53	5712.00
649.97	5701.00
650.42	5807.00
650.87	5856.00
651.32	5865.00
651.77	5814.00
652.21	5845.00
652.66	5836.00
653.11	5861.00
653.56	5913.00
654.00	5865.00
654.45	5839.00
654.90	5791.00
655.35	5753.00
655.79	5503.00
656.24	5375.00
656.69	5367.00
657.14	5404.00
657.58	5630.00
658.03	5743.00
658.48	5825.00
658.92	5829.00
659.37	5765.00
659.82	5858.00
660.27	5834.00
660.71	5902.00
661.16	5841.00
661.61	5967.00
662.05	5947.00
662.50	5938.00
662.95	5938.00
663.39	5919.00
663.84	5920.00
664.29	5886.00
664.74	5911.00
665.18	5884.00
665.63	5917.00
666.08	5893.00
666.52	5947.00
666.97	5853.00
667.42	5895.00
667.86	5826.00
668.31	5873.00
668.76	5927.00
669.20	5942.00
669.65	5925.00
670.09	5833.00
670.54	5843.00
670.99	5963.00
671.43	5888.00
671.88	5810.00
672.33	5808.00
672.77	5860.00
673.22	5816.00
673.66	5879.00
674.11	5900.00
674.56	5842.00
675.00	5847.00
675.45	5875.00
675.90	5827.00
676.34	5915.00
676.79	5803.00
677.23	5810.00
677.68	5836.00
678.12	5817.00
678.57	5813.00
679.02	5763.00
679.46	5865.00
679.91	5842.00
680.35	5791.00
680.80	5839.00
681.25	5803.00
681.69	5791.00
682.14	5796.00
682.58	5819.00
683.03	5768.00
683.47	5793.00
683.92	5814.00
684.36	5760.00
684.81	5745.00
685.25	5765.00
685.70	5718.00
686.15	5663.00
686.59	5417.00
687.04	5026.00
687.48	4824.00
687.93	4895.00
688.37	5165.00
688.82	5258.00
689.26	5191.00
689.71	5253.00
690.15	5269.00
690.60	5310.00
691.04	5360.00
691.49	5428.00
691.93	5451.00
692.38	5541.00
692.82	5454.00
693.27	5497.00
693.71	5434.00
694.16	5480.00
694.60	5405.00
695.04	5460.00
695.49	5469.00
695.93	5466.00
696.38	5545.00
696.82	5582.00
697.27	5681.00
697.71	5612.00
698.16	5575.00
698.60	5551.00
699.04	5512.00
699.49	5507.00
699.93	5486.00
700.38	5515.00
700.82	5446.00
701.27	5475.00
701.71	5487.00
702.15	5411.00
702.60	5437.00
703.04	5481.00
703.49	5531.00
703.93	5526.00
704.37	5543.00
704.82	5616.00
705.26	5531.00
705.71	5580.00
706.15	5552.00
706.59	5506.00
707.04	5579.00
707.48	5529.00
707.93	5587.00
708.37	5559.00
708.81	5530.00
709.26	5522.00
709.70	5461.00
710.14	5545.00
710.59	5557.00
711.03	5576.00
711.47	5551.00
711.92	5528.00
712.36	5552.00
712.80	5549.00
713.25	5470.00
713.69	5496.00
714.13	5547.00
714.58	5511.00
715.02	5403.00
715.46	5454.00
715.91	5444.00
716.35	5376.00
716.79	5175.00
717.24	4958.00
717.68	4927.00
718.12	4860.00
718.57	4774.00
719.01	4728.00
719.45	4662.00
719.89	4732.00
720.34	4733.00
720.78	4778.00
721.22	4997.00
721.66	5116.00
722.11	5215.00
722.55	5194.00
722.99	5107.00
723.44	4972.00
723.88	4866.00
724.32	4778.00
724.76	4881.00
725.21	4838.00
725.65	4878.00
726.09	4871.00
726.53	4898.00
726.97	4932.00
727.42	4854.00
727.86	4857.00
728.30	4890.00
728.74	4921.00
729.19	4873.00
729.63	4901.00
730.07	4889.00
730.51	4938.00
730.95	4903.00
731.40	4968.00
731.84	4990.00
732.28	5083.00
732.72	5125.00
733.16	5168.00
733.61	5201.00
734.05	5205.00
734.49	5294.00
734.93	5231.00
735.37	5182.00
735.81	5200.00
736.26	5155.00
736.70	5178.00
737.14	5254.00
737.58	5214.00
738.02	5250.00
738.46	5214.00
738.90	5139.00
739.35	5182.00
739.79	5221.00
740.23	5222.00
740.67	5324.00
741.11	5219.00
741.55	5180.00
741.99	5216.00
742.44	5200.00
742.88	5247.00
743.32	5225.00
743.76	5240.00
744.20	5287.00
744.64	5176.00
745.08	5243.00
745.52	5263.00
745.96	5251.00
746.40	5276.00
746.84	5245.00
747.29	5266.00
747.73	5267.00
748.17	5304.00
748.61	5224.00
749.05	5293.00
749.49	5236.00
749.93	5252.00
750.37	5341.00
750.81	5240.00
751.25	5313.00
751.69	5276.00
752.13	5247.00
752.57	5265.00
753.01	5305.00
753.45	5229.00
753.89	5292.00
754.33	5249.00
754.77	5233.00
755.21	5273.00
755.65	5248.00
756.09	5282.00
756.53	5261.00
756.97	5225.00
757.41	5282.00
757.85	5253.00
758.29	5228.00
758.73	5133.00
759.17	4968.00
759.61	4336.00
760.05	3630.00
760.49	3182.00
760.93	3050.00
761.37	3284.00
761.81	3719.00
762.25	3992.00
762.69	3804.00
763.13	3625.00
763.57	3680.00
764.01	3699.00
764.45	3844.00
764.89	4004.00
765.33	4202.00
765.77	4335.00
766.21	4520.00
766.65	4619.00
767.09	4793.00
767.53	4920.00
767.96	4962.00
768.40	4991.00
768.84	5029.00
769.28	5065.00
769.72	5074.00
770.16	5028.00
770.60	5153.00
771.04	5130.00
771.48	5092.00
771.92	5138.00
772.35	5166.00
772.79	5140.00
773.23	5113.00
773.67	5178.00
774.11	5160.00
774.55	5089.00
774.99	5074.00
775.43	5060.00
775.86	5083.00
776.30	5129.00
776.74	5145.00
777.18	5133.00
777.62	5141.00
778.06	5067.00
778.50	5067.00
778.93	5062.00
779.37	5058.00
779.81	5107.00
780.25	5053.00
780.69	4988.00
781.12	5070.00
781.56	5047.00
782.00	5088.00
782.44	5111.00
782.88	5112.00
783.32	5037.00
783.75	5017.00
784.19	5050.00
784.63	4983.00
785.07	5061.00
785.50	5013.00
785.94	4987.00
786.38	4976.00
786.82	4938.00
787.26	4949.00
787.69	5004.00
788.13	4960.00
