SpectraSuite Data File
++++++++++++++++++++++++++++++++++++
Date: Thu Aug 05 10:45:31 EEST 2021
User: CanSEE
Dark Spectrum Present: No
Reference Spectrum Present: No
Number of Sampled Component Spectra: 1
Spectrometers: MAYP112785
Integration Time (usec): 10000 (MAYP112785)
Spectra Averaged: 1 (MAYP112785)
Boxcar Smoothing: 0 (MAYP112785)
Correct for Electrical Dark: No (MAYP112785)
Strobe/Lamp Enabled: No (MAYP112785)
Correct for Detector Non-linearity: No (MAYP112785)
Correct for Stray Light: No (MAYP112785)
Number of Pixels in Processed Spectrum: 2068
>>>>>Begin Processed Spectral Data<<<<<
198.35	3481.00
198.82	2490.00
199.30	2588.00
199.77	2572.00
200.24	2599.00
200.71	2599.00
201.18	2611.00
201.65	2606.00
202.13	2611.00
202.60	2613.00
203.07	2608.00
203.54	2608.00
204.01	2599.00
204.48	2610.00
204.96	2602.00
205.43	2604.00
205.90	2606.00
206.37	2600.00
206.84	2606.00
207.31	2601.00
207.78	2609.00
208.26	2605.00
208.73	2608.00
209.20	2608.00
209.67	2604.00
210.14	2612.00
210.61	2606.00
211.08	2610.00
211.56	2611.00
212.03	2610.00
212.50	2612.00
212.97	2614.00
213.44	2605.00
213.91	2606.00
214.38	2610.00
214.85	2607.00
215.33	2611.00
215.80	2605.00
216.27	2604.00
216.74	2602.00
217.21	2603.00
217.68	2607.00
218.15	2611.00
218.62	2609.00
219.09	2596.00
219.57	2603.00
220.04	2606.00
220.51	2614.00
220.98	2605.00
221.45	2606.00
221.92	2605.00
222.39	2602.00
222.86	2610.00
223.33	2610.00
223.80	2610.00
224.27	2599.00
224.74	2601.00
225.22	2603.00
225.69	2609.00
226.16	2603.00
226.63	2600.00
227.10	2609.00
227.57	2606.00
228.04	2606.00
228.51	2611.00
228.98	2609.00
229.45	2601.00
229.92	2612.00
230.39	2600.00
230.86	2607.00
231.33	2601.00
231.80	2605.00
232.27	2605.00
232.75	2604.00
233.22	2602.00
233.69	2605.00
234.16	2606.00
234.63	2605.00
235.10	2605.00
235.57	2608.00
236.04	2600.00
236.51	2602.00
236.98	2605.00
237.45	2609.00
237.92	2598.00
238.39	2606.00
238.86	2609.00
239.33	2665.00
239.80	2607.00
240.27	2609.00
240.74	2613.00
241.21	2606.00
241.68	2608.00
242.15	2606.00
242.62	2606.00
243.09	2608.00
243.56	2608.00
244.03	2599.00
244.50	2615.00
244.97	2604.00
245.44	2624.00
245.91	2606.00
246.38	2598.00
246.85	2605.00
247.32	2603.00
247.79	2615.00
248.26	2612.00
248.73	2598.00
249.20	2609.00
249.67	2614.00
250.14	2607.00
250.61	2607.00
251.08	2611.00
251.55	2605.00
252.02	2603.00
252.49	2605.00
252.96	2604.00
253.43	2606.00
253.90	2608.00
254.37	2617.00
254.84	2601.00
255.31	2592.00
255.77	2602.00
256.24	2610.00
256.71	2606.00
257.18	2611.00
257.65	2609.00
258.12	2608.00
258.59	2613.00
259.06	2611.00
259.53	2613.00
260.00	2606.00
260.47	2608.00
260.94	2609.00
261.41	2612.00
261.88	2612.00
262.35	2613.00
262.81	2612.00
263.28	2610.00
263.75	2608.00
264.22	2609.00
264.69	2608.00
265.16	2609.00
265.63	2606.00
266.10	2607.00
266.57	2603.00
267.04	2611.00
267.51	2607.00
267.97	2615.00
268.44	2608.00
268.91	2600.00
269.38	2609.00
269.85	2601.00
270.32	2608.00
270.79	2609.00
271.26	2613.00
271.73	2605.00
272.19	2608.00
272.66	2607.00
273.13	2615.00
273.60	2603.00
274.07	2605.00
274.54	2605.00
275.01	2611.00
275.48	2605.00
275.94	2608.00
276.41	2605.00
276.88	2602.00
277.35	2601.00
277.82	2608.00
278.29	2611.00
278.76	2608.00
279.22	2609.00
279.69	2602.00
280.16	2616.00
280.63	2608.00
281.10	2614.00
281.57	2606.00
282.04	2610.00
282.50	2610.00
282.97	2607.00
283.44	2608.00
283.91	2615.00
284.38	2606.00
284.85	2607.00
285.31	2607.00
285.78	2615.00
286.25	2601.00
286.72	2605.00
287.19	2603.00
287.65	2616.00
288.12	2607.00
288.59	2610.00
289.06	2607.00
289.53	2605.00
289.99	2611.00
290.46	2607.00
290.93	2610.00
291.40	2607.00
291.87	2609.00
292.33	2610.00
292.80	2604.00
293.27	2618.00
293.74	2596.00
294.21	2608.00
294.67	2603.00
295.14	2603.00
295.61	2605.00
296.08	2609.00
296.54	2606.00
297.01	2601.00
297.48	2602.00
297.95	2603.00
298.42	2603.00
298.88	2611.00
299.35	2606.00
299.82	2608.00
300.29	2609.00
300.75	2612.00
301.22	2612.00
301.69	2613.00
302.16	2609.00
302.62	2604.00
303.09	2607.00
303.56	2611.00
304.03	2615.00
304.49	2613.00
304.96	2606.00
305.43	2620.00
305.90	2621.00
306.36	2619.00
306.83	2609.00
307.30	2613.00
307.76	2618.00
308.23	2623.00
308.70	2618.00
309.17	2631.00
309.63	2625.00
310.10	2632.00
310.57	2630.00
311.03	2646.00
311.50	2641.00
311.97	2651.00
312.44	2654.00
312.90	2659.00
313.37	2656.00
313.84	2657.00
314.30	2677.00
314.77	2670.00
315.24	2669.00
315.70	2669.00
316.17	2668.00
316.64	2674.00
317.10	2690.00
317.57	2693.00
318.04	2691.00
318.50	2682.00
318.97	2687.00
319.44	2707.00
319.90	2713.00
320.37	2717.00
320.84	2721.00
321.30	2725.00
321.77	2726.00
322.24	2723.00
322.70	2719.00
323.17	2719.00
323.64	2734.00
324.10	2740.00
324.57	2754.00
325.04	2772.00
325.50	2762.00
325.97	2766.00
326.44	2815.00
326.90	2794.00
327.37	2814.00
327.84	2811.00
328.30	2803.00
328.77	2790.00
329.23	2813.00
329.70	2846.00
330.17	2834.00
330.63	2827.00
331.10	2831.00
331.56	2825.00
332.03	2826.00
332.50	2843.00
332.96	2839.00
333.43	2836.00
333.90	2830.00
334.36	2817.00
334.83	2835.00
335.29	2858.00
335.76	2839.00
336.22	2820.00
336.69	2810.00
337.16	2795.00
337.62	2828.00
338.09	2833.00
338.55	2839.00
339.02	2862.00
339.49	2870.00
339.95	2872.00
340.42	2901.00
340.88	2871.00
341.35	2859.00
341.81	2875.00
342.28	2873.00
342.75	2908.00
343.21	2868.00
343.68	2884.00
344.14	2859.00
344.61	2864.00
345.07	2859.00
345.54	2901.00
346.00	2893.00
346.47	2910.00
346.93	2890.00
347.40	2931.00
347.87	2906.00
348.33	2913.00
348.80	2912.00
349.26	2910.00
349.73	2926.00
350.19	2946.00
350.66	2954.00
351.12	2954.00
351.59	2941.00
352.05	2925.00
352.52	2920.00
352.98	2930.00
353.45	2960.00
353.91	2980.00
354.38	2975.00
354.84	2983.00
355.31	2969.00
355.77	2972.00
356.24	2948.00
356.70	2941.00
357.17	2908.00
357.63	2906.00
358.10	2918.00
358.56	2889.00
359.03	2901.00
359.49	2954.00
359.96	3008.00
360.42	2989.00
360.89	2949.00
361.35	2964.00
361.82	2954.00
362.28	2965.00
362.75	2987.00
363.21	3011.00
363.67	2990.00
364.14	2999.00
364.60	3035.00
365.07	3013.00
365.53	3046.00
366.00	3064.00
366.46	3125.00
366.93	3078.00
367.39	3066.00
367.86	3067.00
368.32	3056.00
368.78	3102.00
369.25	3073.00
369.71	3104.00
370.18	3114.00
370.64	3076.00
371.11	3086.00
371.57	3088.00
372.03	3097.00
372.50	3074.00
372.96	3060.00
373.43	3017.00
373.89	3003.00
374.35	3029.00
374.82	3044.00
375.28	3046.00
375.75	3077.00
376.21	3138.00
376.67	3125.00
377.14	3153.00
377.60	3162.00
378.07	3242.00
378.53	3222.00
378.99	3177.00
379.46	3173.00
379.92	3142.00
380.39	3159.00
380.85	3198.00
381.31	3160.00
381.78	3105.00
382.24	3053.00
382.70	3015.00
383.17	3002.00
383.63	2992.00
384.09	3032.00
384.56	3095.00
385.02	3159.00
385.48	3194.00
385.95	3156.00
386.41	3164.00
386.88	3147.00
387.34	3187.00
387.80	3158.00
388.27	3183.00
388.73	3193.00
389.19	3247.00
389.66	3283.00
390.12	3318.00
390.58	3306.00
391.05	3325.00
391.51	3302.00
391.97	3311.00
392.43	3229.00
392.90	3156.00
393.36	3087.00
393.82	3067.00
394.29	3176.00
394.75	3287.00
395.21	3328.00
395.68	3336.00
396.14	3282.00
396.60	3244.00
397.07	3147.00
397.53	3233.00
397.99	3426.00
398.45	3581.00
398.92	3619.00
399.38	3703.00
399.84	3714.00
400.31	3691.00
400.77	3748.00
401.23	3755.00
401.69	3809.00
402.16	3794.00
402.62	3823.00
403.08	3783.00
403.54	3773.00
404.01	3788.00
404.47	3805.00
404.93	3799.00
405.39	3785.00
405.86	3792.00
406.32	3791.00
406.78	3749.00
407.24	3788.00
407.71	3847.00
408.17	3875.00
408.63	3860.00
409.09	3850.00
409.56	3871.00
410.02	3846.00
410.48	3817.00
410.94	3855.00
411.40	3969.00
411.87	3969.00
412.33	3982.00
412.79	4010.00
413.25	3994.00
413.71	3936.00
414.18	3974.00
414.64	4002.00
415.10	4012.00
415.56	3985.00
416.02	4025.00
416.49	4018.00
416.95	4047.00
417.41	4004.00
417.87	4006.00
418.33	3993.00
418.80	3992.00
419.26	4052.00
419.72	4021.00
420.18	4050.00
420.64	4051.00
421.10	4101.00
421.57	4085.00
422.03	4065.00
422.49	4047.00
422.95	4064.00
423.41	4010.00
423.87	4039.00
424.34	4077.00
424.80	4062.00
425.26	4034.00
425.72	4064.00
426.18	4063.00
426.64	4024.00
427.10	4034.00
427.57	4038.00
428.03	4025.00
428.49	3988.00
428.95	3935.00
429.41	3890.00
429.87	3839.00
430.33	3855.00
430.79	3816.00
431.26	3903.00
431.72	4052.00
432.18	4212.00
432.64	4203.00
433.10	4124.00
433.56	4194.00
434.02	4179.00
434.48	4113.00
434.94	4225.00
435.40	4312.00
435.87	4273.00
436.33	4347.00
436.79	4370.00
437.25	4318.00
437.71	4309.00
438.17	4267.00
438.63	4262.00
439.09	4209.00
439.55	4290.00
440.01	4368.00
440.47	4384.00
440.93	4400.00
441.39	4474.00
441.85	4463.00
442.32	4582.00
442.78	4567.00
443.24	4512.00
443.70	4576.00
444.16	4552.00
444.62	4571.00
445.08	4591.00
445.54	4535.00
446.00	4513.00
446.46	4577.00
446.92	4600.00
447.38	4673.00
447.84	4753.00
448.30	4732.00
448.76	4720.00
449.22	4775.00
449.68	4769.00
450.14	4859.00
450.60	4892.00
451.06	4858.00
451.52	4863.00
451.98	4747.00
452.44	4813.00
452.90	4788.00
453.36	4749.00
453.82	4804.00
454.28	4811.00
454.74	4853.00
455.20	4879.00
455.66	4855.00
456.12	4949.00
456.58	4934.00
457.04	4899.00
457.50	4905.00
457.96	4926.00
458.42	4902.00
458.88	4864.00
459.34	4910.00
459.80	4890.00
460.26	4949.00
460.72	4972.00
461.18	4972.00
461.64	5003.00
462.10	5071.00
462.55	4998.00
463.01	4998.00
463.47	4998.00
463.93	4992.00
464.39	4969.00
464.85	4928.00
465.31	4969.00
465.77	5020.00
466.23	5016.00
466.69	4996.00
467.15	4924.00
467.61	4977.00
468.07	5068.00
468.52	5050.00
468.98	4955.00
469.44	5071.00
469.90	5005.00
470.36	5017.00
470.82	4968.00
471.28	5001.00
471.74	5058.00
472.20	5145.00
472.66	5167.00
473.11	5130.00
473.57	5054.00
474.03	5096.00
474.49	5186.00
474.95	5116.00
475.41	5155.00
475.87	5116.00
476.33	5125.00
476.78	5149.00
477.24	5178.00
477.70	5278.00
478.16	5194.00
478.62	5230.00
479.08	5179.00
479.54	5265.00
479.99	5273.00
480.45	5333.00
480.91	5275.00
481.37	5297.00
481.83	5335.00
482.29	5297.00
482.74	5272.00
483.20	5239.00
483.66	5242.00
484.12	5259.00
484.58	5232.00
485.04	5066.00
485.49	5018.00
485.95	4965.00
486.41	4924.00
486.87	4904.00
487.33	5083.00
487.78	5088.00
488.24	5127.00
488.70	5186.00
489.16	5246.00
489.62	5220.00
490.07	5331.00
490.53	5259.00
490.99	5321.00
491.45	5264.00
491.90	5230.00
492.36	5248.00
492.82	5237.00
493.28	5304.00
493.74	5392.00
494.19	5363.00
494.65	5284.00
495.11	5375.00
495.57	5403.00
496.02	5347.00
496.48	5341.00
496.94	5385.00
497.40	5390.00
497.85	5319.00
498.31	5305.00
498.77	5330.00
499.23	5277.00
499.68	5366.00
500.14	5355.00
500.60	5243.00
501.06	5270.00
501.51	5227.00
501.97	5240.00
502.43	5229.00
502.88	5250.00
503.34	5316.00
503.80	5303.00
504.26	5304.00
504.71	5304.00
505.17	5377.00
505.63	5401.00
506.08	5414.00
506.54	5415.00
507.00	5347.00
507.45	5327.00
507.91	5323.00
508.37	5389.00
508.82	5384.00
509.28	5446.00
509.74	5495.00
510.19	5406.00
510.65	5429.00
511.11	5552.00
511.56	5477.00
512.02	5456.00
512.48	5466.00
512.93	5410.00
513.39	5366.00
513.85	5385.00
514.30	5399.00
514.76	5445.00
515.22	5437.00
515.67	5417.00
516.13	5271.00
516.59	5262.00
517.04	5185.00
517.50	5178.00
517.95	5162.00
518.41	5281.00
518.87	5337.00
519.32	5318.00
519.78	5404.00
520.24	5464.00
520.69	5483.00
521.15	5518.00
521.60	5528.00
522.06	5498.00
522.52	5474.00
522.97	5510.00
523.43	5507.00
523.88	5610.00
524.34	5641.00
524.80	5659.00
525.25	5590.00
525.71	5539.00
526.16	5497.00
526.62	5410.00
527.07	5305.00
527.53	5446.00
527.99	5498.00
528.44	5624.00
528.90	5644.00
529.35	5649.00
529.81	5671.00
530.26	5663.00
530.72	5715.00
531.17	5778.00
531.63	5692.00
532.09	5632.00
532.54	5605.00
533.00	5575.00
533.45	5570.00
533.91	5594.00
534.36	5725.00
534.82	5657.00
535.27	5689.00
535.73	5724.00
536.18	5794.00
536.64	5719.00
537.09	5710.00
537.55	5683.00
538.00	5669.00
538.46	5687.00
538.91	5669.00
539.37	5667.00
539.82	5692.00
540.28	5527.00
540.73	5552.00
541.19	5609.00
541.64	5663.00
542.10	5694.00
542.55	5689.00
543.01	5661.00
543.46	5713.00
543.92	5684.00
544.37	5712.00
544.83	5722.00
545.28	5709.00
545.74	5694.00
546.19	5742.00
546.64	5729.00
547.10	5712.00
547.55	5673.00
548.01	5651.00
548.46	5752.00
548.92	5745.00
549.37	5765.00
549.83	5804.00
550.28	5789.00
550.73	5724.00
551.19	5784.00
551.64	5792.00
552.10	5808.00
552.55	5799.00
553.00	5775.00
553.46	5760.00
553.91	5773.00
554.37	5849.00
554.82	5826.00
555.28	5804.00
555.73	5758.00
556.18	5807.00
556.64	5811.00
557.09	5726.00
557.54	5661.00
558.00	5724.00
558.45	5742.00
558.91	5739.00
559.36	5659.00
559.81	5718.00
560.27	5720.00
560.72	5748.00
561.17	5746.00
561.63	5774.00
562.08	5746.00
562.54	5751.00
562.99	5810.00
563.44	5796.00
563.90	5781.00
564.35	5767.00
564.80	5802.00
565.26	5783.00
565.71	5730.00
566.16	5718.00
566.62	5685.00
567.07	5748.00
567.52	5782.00
567.98	5768.00
568.43	5728.00
568.88	5735.00
569.34	5708.00
569.79	5734.00
570.24	5718.00
570.69	5732.00
571.15	5702.00
571.60	5749.00
572.05	5679.00
572.51	5807.00
572.96	5858.00
573.41	5836.00
573.86	5850.00
574.32	5764.00
574.77	5796.00
575.22	5705.00
575.68	5711.00
576.13	5821.00
576.58	5797.00
577.03	5827.00
577.49	5749.00
577.94	5717.00
578.39	5723.00
578.84	5761.00
579.30	5824.00
579.75	5872.00
580.20	5830.00
580.65	5822.00
581.11	5872.00
581.56	5799.00
582.01	5918.00
582.46	5878.00
582.92	5928.00
583.37	5908.00
583.82	5892.00
584.27	5942.00
584.72	5917.00
585.18	5925.00
585.63	5812.00
586.08	5904.00
586.53	5832.00
586.98	5855.00
587.44	5886.00
587.89	5856.00
588.34	5809.00
588.79	5579.00
589.24	5568.00
589.70	5538.00
590.15	5659.00
590.60	5747.00
591.05	5792.00
591.50	5781.00
591.96	5797.00
592.41	5835.00
592.86	5760.00
593.31	5842.00
593.76	5811.00
594.21	5769.00
594.66	5695.00
595.12	5785.00
595.57	5777.00
596.02	5786.00
596.47	5822.00
596.92	5838.00
597.37	5775.00
597.82	5844.00
598.28	5744.00
598.73	5782.00
599.18	5790.00
599.63	5769.00
600.08	5800.00
600.53	5835.00
600.98	5856.00
601.43	5780.00
601.88	5734.00
602.34	5745.00
602.79	5806.00
603.24	5817.00
603.69	5979.00
604.14	5854.00
604.59	5951.00
605.04	5867.00
605.49	5918.00
605.94	5857.00
606.39	5895.00
606.84	5941.00
607.30	5918.00
607.75	5863.00
608.20	5776.00
608.65	5782.00
609.10	5878.00
609.55	5892.00
610.00	5815.00
610.45	5907.00
610.90	5849.00
611.35	5897.00
611.80	5897.00
612.25	5829.00
612.70	5808.00
613.15	5839.00
613.60	5813.00
614.05	5811.00
614.50	5817.00
614.95	5853.00
615.40	5815.00
615.85	5795.00
616.30	5756.00
616.75	5768.00
617.20	5755.00
617.65	5806.00
618.10	5874.00
618.55	5872.00
619.00	5891.00
619.45	5897.00
619.90	5884.00
620.35	5829.00
620.80	5946.00
621.25	5899.00
621.70	5882.00
622.15	5866.00
622.60	5832.00
623.05	5865.00
623.50	5758.00
623.95	5742.00
624.40	5768.00
624.85	5798.00
625.30	5767.00
625.75	5791.00
626.20	5827.00
626.65	5793.00
627.10	5802.00
627.55	5763.00
627.99	5769.00
628.44	5726.00
628.89	5786.00
629.34	5760.00
629.79	5758.00
630.24	5753.00
630.69	5755.00
631.14	5866.00
631.59	5773.00
632.04	5804.00
632.49	5856.00
632.94	5809.00
633.38	5848.00
633.83	5807.00
634.28	5850.00
634.73	5898.00
635.18	5836.00
635.63	5878.00
636.08	5852.00
636.53	5883.00
636.97	5926.00
637.42	5940.00
637.87	5918.00
638.32	6018.00
638.77	5937.00
639.22	5991.00
639.67	5901.00
640.11	5912.00
640.56	5918.00
641.01	5830.00
641.46	5911.00
641.91	5894.00
642.36	5894.00
642.81	5937.00
643.25	5975.00
643.70	5879.00
644.15	5936.00
644.60	5935.00
645.05	5872.00
645.49	5878.00
645.94	5825.00
646.39	5941.00
646.84	5823.00
647.29	5802.00
647.73	5787.00
648.18	5777.00
648.63	5764.00
649.08	5836.00
649.53	5787.00
649.97	5787.00
650.42	5839.00
650.87	5859.00
651.32	5899.00
651.77	5782.00
652.21	5815.00
652.66	5855.00
653.11	5893.00
653.56	5855.00
654.00	5826.00
654.45	5862.00
654.90	5784.00
655.35	5665.00
655.79	5591.00
656.24	5343.00
656.69	5356.00
657.14	5473.00
657.58	5723.00
658.03	5753.00
658.48	5842.00
658.92	5873.00
659.37	5812.00
659.82	5820.00
660.27	5867.00
660.71	5901.00
661.16	5932.00
661.61	5908.00
662.05	5909.00
662.50	5946.00
662.95	5959.00
663.39	5909.00
663.84	5872.00
664.29	5863.00
664.74	5886.00
665.18	5942.00
665.63	5909.00
666.08	5923.00
666.52	5855.00
666.97	5866.00
667.42	5884.00
667.86	5909.00
668.31	5832.00
668.76	5888.00
669.20	5963.00
669.65	5849.00
670.09	5827.00
670.54	5849.00
670.99	5857.00
671.43	5855.00
671.88	5928.00
672.33	5844.00
672.77	5871.00
673.22	5839.00
673.66	5865.00
674.11	5873.00
674.56	5837.00
675.00	5835.00
675.45	5873.00
675.90	5869.00
676.34	5811.00
676.79	5850.00
677.23	5902.00
677.68	5816.00
678.12	5826.00
678.57	5919.00
679.02	5755.00
679.46	5811.00
679.91	5829.00
680.35	5874.00
680.80	5848.00
681.25	5817.00
681.69	5784.00
682.14	5850.00
682.58	5819.00
683.03	5796.00
683.47	5860.00
683.92	5783.00
684.36	5727.00
684.81	5748.00
685.25	5769.00
685.70	5678.00
686.15	5659.00
686.59	5466.00
687.04	5038.00
687.48	4829.00
687.93	4938.00
688.37	5216.00
688.82	5274.00
689.26	5268.00
689.71	5193.00
690.15	5247.00
690.60	5299.00
691.04	5346.00
691.49	5406.00
691.93	5478.00
692.38	5529.00
692.82	5536.00
693.27	5489.00
693.71	5484.00
694.16	5425.00
694.60	5456.00
695.04	5472.00
695.49	5556.00
695.93	5501.00
696.38	5546.00
696.82	5604.00
697.27	5653.00
697.71	5633.00
698.16	5564.00
698.60	5492.00
699.04	5525.00
699.49	5520.00
699.93	5544.00
700.38	5498.00
700.82	5454.00
701.27	5507.00
701.71	5422.00
702.15	5439.00
702.60	5444.00
703.04	5473.00
703.49	5510.00
703.93	5514.00
704.37	5532.00
704.82	5627.00
705.26	5618.00
705.71	5550.00
706.15	5574.00
706.59	5527.00
707.04	5583.00
707.48	5563.00
707.93	5537.00
708.37	5618.00
708.81	5540.00
709.26	5554.00
709.70	5558.00
710.14	5520.00
710.59	5580.00
711.03	5520.00
711.47	5573.00
711.92	5561.00
712.36	5510.00
712.80	5518.00
713.25	5491.00
713.69	5528.00
714.13	5495.00
714.58	5526.00
715.02	5430.00
715.46	5406.00
715.91	5424.00
716.35	5339.00
716.79	5199.00
717.24	4998.00
717.68	4919.00
718.12	4891.00
718.57	4733.00
719.01	4743.00
719.45	4669.00
719.89	4697.00
720.34	4740.00
720.78	4741.00
721.22	4962.00
721.66	5128.00
722.11	5167.00
722.55	5208.00
722.99	5102.00
723.44	4937.00
723.88	4931.00
724.32	4837.00
724.76	4864.00
725.21	4888.00
725.65	4799.00
726.09	4827.00
726.53	4880.00
726.97	4950.00
727.42	4956.00
727.86	4849.00
728.30	4956.00
728.74	4925.00
729.19	4897.00
729.63	4803.00
730.07	4974.00
730.51	4975.00
730.95	4908.00
731.40	4918.00
731.84	5011.00
732.28	5123.00
732.72	5139.00
733.16	5102.00
733.61	5196.00
734.05	5282.00
734.49	5203.00
734.93	5195.00
735.37	5216.00
735.81	5178.00
736.26	5206.00
736.70	5199.00
737.14	5239.00
737.58	5265.00
738.02	5199.00
738.46	5248.00
738.90	5171.00
739.35	5207.00
739.79	5187.00
740.23	5195.00
740.67	5239.00
741.11	5211.00
741.55	5204.00
741.99	5215.00
742.44	5226.00
742.88	5287.00
743.32	5265.00
743.76	5269.00
744.20	5268.00
744.64	5182.00
745.08	5261.00
745.52	5278.00
745.96	5340.00
746.40	5271.00
746.84	5305.00
747.29	5284.00
747.73	5249.00
748.17	5317.00
748.61	5302.00
749.05	5296.00
749.49	5195.00
749.93	5284.00
750.37	5272.00
750.81	5249.00
751.25	5214.00
751.69	5307.00
752.13	5273.00
752.57	5314.00
753.01	5226.00
753.45	5264.00
753.89	5283.00
754.33	5312.00
754.77	5245.00
755.21	5290.00
755.65	5295.00
756.09	5310.00
756.53	5280.00
756.97	5203.00
757.41	5295.00
757.85	5231.00
758.29	5229.00
758.73	5137.00
759.17	4975.00
759.61	4325.00
760.05	3618.00
760.49	3147.00
760.93	3063.00
761.37	3234.00
761.81	3751.00
762.25	3974.00
762.69	3793.00
763.13	3657.00
763.57	3599.00
764.01	3703.00
764.45	3831.00
764.89	4017.00
765.33	4196.00
765.77	4368.00
766.21	4482.00
766.65	4615.00
767.09	4801.00
767.53	4843.00
767.96	4971.00
768.40	4997.00
768.84	5021.00
769.28	5079.00
769.72	5067.00
770.16	5073.00
770.60	5173.00
771.04	5174.00
771.48	5135.00
771.92	5180.00
772.35	5182.00
772.79	5174.00
773.23	5156.00
773.67	5132.00
774.11	5177.00
774.55	5131.00
774.99	5057.00
775.43	5132.00
775.86	5055.00
776.30	5141.00
776.74	5155.00
777.18	5139.00
777.62	5076.00
778.06	5137.00
778.50	5102.00
778.93	5091.00
779.37	5085.00
779.81	5030.00
780.25	5075.00
780.69	5030.00
781.12	5033.00
781.56	5049.00
782.00	5039.00
782.44	5130.00
782.88	5055.00
783.32	5083.00
783.75	5014.00
784.19	5080.00
784.63	5001.00
785.07	5034.00
785.50	5010.00
785.94	4975.00
786.38	4864.00
786.82	4938.00
787.26	4947.00
787.69	4925.00
788.13	4926.00
