SpectraSuite Data File
++++++++++++++++++++++++++++++++++++
Date: Thu Aug 05 09:52:33 EEST 2021
User: CanSEE
Dark Spectrum Present: No
Reference Spectrum Present: No
Number of Sampled Component Spectra: 1
Spectrometers: MAYP112785
Integration Time (usec): 10000 (MAYP112785)
Spectra Averaged: 1 (MAYP112785)
Boxcar Smoothing: 0 (MAYP112785)
Correct for Electrical Dark: No (MAYP112785)
Strobe/Lamp Enabled: No (MAYP112785)
Correct for Detector Non-linearity: No (MAYP112785)
Correct for Stray Light: No (MAYP112785)
Number of Pixels in Processed Spectrum: 2068
>>>>>Begin Processed Spectral Data<<<<<
198.35	3440.00
198.82	2479.00
199.30	2574.00
199.77	2555.00
200.24	2584.00
200.71	2583.00
201.18	2579.00
201.65	2586.00
202.13	2583.00
202.60	2589.00
203.07	2590.00
203.54	2582.00
204.01	2581.00
204.48	2584.00
204.96	2574.00
205.43	2580.00
205.90	2582.00
206.37	2584.00
206.84	2577.00
207.31	2576.00
207.78	2585.00
208.26	2577.00
208.73	2581.00
209.20	2584.00
209.67	2580.00
210.14	2583.00
210.61	2578.00
211.08	2589.00
211.56	2583.00
212.03	2583.00
212.50	2585.00
212.97	2585.00
213.44	2577.00
213.91	2581.00
214.38	2587.00
214.85	2579.00
215.33	2583.00
215.80	2572.00
216.27	2583.00
216.74	2583.00
217.21	2583.00
217.68	2583.00
218.15	2574.00
218.62	2589.00
219.09	2577.00
219.57	2594.00
220.04	2582.00
220.51	2579.00
220.98	2579.00
221.45	2590.00
221.92	2579.00
222.39	2580.00
222.86	2580.00
223.33	2584.00
223.80	2577.00
224.27	2588.00
224.74	2582.00
225.22	2580.00
225.69	2583.00
226.16	2581.00
226.63	2584.00
227.10	2590.00
227.57	2580.00
228.04	2576.00
228.51	2582.00
228.98	2593.00
229.45	2579.00
229.92	2579.00
230.39	2580.00
230.86	2584.00
231.33	2585.00
231.80	2585.00
232.27	2586.00
232.75	2583.00
233.22	2597.00
233.69	2583.00
234.16	2587.00
234.63	2580.00
235.10	2580.00
235.57	2578.00
236.04	2585.00
236.51	2588.00
236.98	2580.00
237.45	2579.00
237.92	2580.00
238.39	2581.00
238.86	2582.00
239.33	2624.00
239.80	2583.00
240.27	2586.00
240.74	2580.00
241.21	2583.00
241.68	2586.00
242.15	2582.00
242.62	2580.00
243.09	2579.00
243.56	2580.00
244.03	2585.00
244.50	2583.00
244.97	2581.00
245.44	2597.00
245.91	2581.00
246.38	2581.00
246.85	2583.00
247.32	2586.00
247.79	2586.00
248.26	2587.00
248.73	2579.00
249.20	2582.00
249.67	2582.00
250.14	2586.00
250.61	2583.00
251.08	2581.00
251.55	2583.00
252.02	2582.00
252.49	2581.00
252.96	2580.00
253.43	2582.00
253.90	2588.00
254.37	2586.00
254.84	2582.00
255.31	2583.00
255.77	2583.00
256.24	2580.00
256.71	2581.00
257.18	2581.00
257.65	2586.00
258.12	2587.00
258.59	2580.00
259.06	2578.00
259.53	2587.00
260.00	2587.00
260.47	2583.00
260.94	2583.00
261.41	2580.00
261.88	2584.00
262.35	2584.00
262.81	2579.00
263.28	2589.00
263.75	2581.00
264.22	2587.00
264.69	2587.00
265.16	2589.00
265.63	2583.00
266.10	2576.00
266.57	2577.00
267.04	2580.00
267.51	2582.00
267.97	2585.00
268.44	2577.00
268.91	2580.00
269.38	2594.00
269.85	2582.00
270.32	2578.00
270.79	2583.00
271.26	2588.00
271.73	2591.00
272.19	2583.00
272.66	2581.00
273.13	2584.00
273.60	2580.00
274.07	2587.00
274.54	2593.00
275.01	2590.00
275.48	2586.00
275.94	2588.00
276.41	2580.00
276.88	2579.00
277.35	2582.00
277.82	2579.00
278.29	2583.00
278.76	2579.00
279.22	2583.00
279.69	2589.00
280.16	2593.00
280.63	2582.00
281.10	2586.00
281.57	2587.00
282.04	2589.00
282.50	2576.00
282.97	2585.00
283.44	2587.00
283.91	2580.00
284.38	2585.00
284.85	2579.00
285.31	2580.00
285.78	2579.00
286.25	2575.00
286.72	2578.00
287.19	2580.00
287.65	2581.00
288.12	2585.00
288.59	2581.00
289.06	2586.00
289.53	2579.00
289.99	2586.00
290.46	2576.00
290.93	2580.00
291.40	2589.00
291.87	2575.00
292.33	2583.00
292.80	2581.00
293.27	2583.00
293.74	2578.00
294.21	2587.00
294.67	2585.00
295.14	2585.00
295.61	2586.00
296.08	2588.00
296.54	2587.00
297.01	2583.00
297.48	2587.00
297.95	2577.00
298.42	2579.00
298.88	2579.00
299.35	2580.00
299.82	2583.00
300.29	2574.00
300.75	2586.00
301.22	2590.00
301.69	2581.00
302.16	2585.00
302.62	2579.00
303.09	2575.00
303.56	2584.00
304.03	2588.00
304.49	2592.00
304.96	2585.00
305.43	2580.00
305.90	2588.00
306.36	2595.00
306.83	2590.00
307.30	2585.00
307.76	2596.00
308.23	2589.00
308.70	2592.00
309.17	2599.00
309.63	2596.00
310.10	2596.00
310.57	2602.00
311.03	2612.00
311.50	2618.00
311.97	2610.00
312.44	2611.00
312.90	2618.00
313.37	2627.00
313.84	2619.00
314.30	2624.00
314.77	2621.00
315.24	2628.00
315.70	2645.00
316.17	2631.00
316.64	2637.00
317.10	2653.00
317.57	2648.00
318.04	2653.00
318.50	2652.00
318.97	2651.00
319.44	2666.00
319.90	2663.00
320.37	2677.00
320.84	2680.00
321.30	2677.00
321.77	2673.00
322.24	2689.00
322.70	2672.00
323.17	2678.00
323.64	2686.00
324.10	2688.00
324.57	2706.00
325.04	2697.00
325.50	2709.00
325.97	2732.00
326.44	2736.00
326.90	2769.00
327.37	2749.00
327.84	2722.00
328.30	2742.00
328.77	2741.00
329.23	2776.00
329.70	2805.00
330.17	2769.00
330.63	2767.00
331.10	2768.00
331.56	2765.00
332.03	2776.00
332.50	2755.00
332.96	2767.00
333.43	2782.00
333.90	2779.00
334.36	2778.00
334.83	2779.00
335.29	2774.00
335.76	2780.00
336.22	2765.00
336.69	2757.00
337.16	2758.00
337.62	2780.00
338.09	2768.00
338.55	2797.00
339.02	2799.00
339.49	2809.00
339.95	2818.00
340.42	2833.00
340.88	2820.00
341.35	2817.00
341.81	2815.00
342.28	2834.00
342.75	2829.00
343.21	2816.00
343.68	2816.00
344.14	2809.00
344.61	2781.00
345.07	2808.00
345.54	2818.00
346.00	2850.00
346.47	2833.00
346.93	2839.00
347.40	2847.00
347.87	2823.00
348.33	2852.00
348.80	2845.00
349.26	2855.00
349.73	2869.00
350.19	2872.00
350.66	2884.00
351.12	2868.00
351.59	2866.00
352.05	2880.00
352.52	2867.00
352.98	2863.00
353.45	2869.00
353.91	2926.00
354.38	2927.00
354.84	2913.00
355.31	2899.00
355.77	2899.00
356.24	2881.00
356.70	2891.00
357.17	2837.00
357.63	2833.00
358.10	2844.00
358.56	2818.00
359.03	2849.00
359.49	2880.00
359.96	2913.00
360.42	2915.00
360.89	2889.00
361.35	2880.00
361.82	2886.00
362.28	2892.00
362.75	2899.00
363.21	2934.00
363.67	2925.00
364.14	2950.00
364.60	2936.00
365.07	2943.00
365.53	2960.00
366.00	2998.00
366.46	3005.00
366.93	2982.00
367.39	2991.00
367.86	2998.00
368.32	2968.00
368.78	2963.00
369.25	2986.00
369.71	3030.00
370.18	3017.00
370.64	2984.00
371.11	2976.00
371.57	2984.00
372.03	2982.00
372.50	2944.00
372.96	2970.00
373.43	2930.00
373.89	2910.00
374.35	2930.00
374.82	2976.00
375.28	2961.00
375.75	3034.00
376.21	3030.00
376.67	3008.00
377.14	3048.00
377.60	3067.00
378.07	3088.00
378.53	3102.00
378.99	3081.00
379.46	3046.00
379.92	3022.00
380.39	3046.00
380.85	3055.00
381.31	3056.00
381.78	3002.00
382.24	2962.00
382.70	2926.00
383.17	2921.00
383.63	2911.00
384.09	2951.00
384.56	2965.00
385.02	3044.00
385.48	3040.00
385.95	3045.00
386.41	3051.00
386.88	3044.00
387.34	3064.00
387.80	3054.00
388.27	3070.00
388.73	3076.00
389.19	3121.00
389.66	3141.00
390.12	3159.00
390.58	3179.00
391.05	3168.00
391.51	3191.00
391.97	3140.00
392.43	3095.00
392.90	3028.00
393.36	2976.00
393.82	2947.00
394.29	3052.00
394.75	3138.00
395.21	3190.00
395.68	3191.00
396.14	3159.00
396.60	3117.00
397.07	3040.00
397.53	3130.00
397.99	3257.00
398.45	3408.00
398.92	3458.00
399.38	3474.00
399.84	3518.00
400.31	3488.00
400.77	3537.00
401.23	3517.00
401.69	3534.00
402.16	3604.00
402.62	3558.00
403.08	3593.00
403.54	3582.00
404.01	3569.00
404.47	3579.00
404.93	3535.00
405.39	3581.00
405.86	3524.00
406.32	3565.00
406.78	3531.00
407.24	3581.00
407.71	3587.00
408.17	3594.00
408.63	3607.00
409.09	3668.00
409.56	3646.00
410.02	3582.00
410.48	3579.00
410.94	3609.00
411.40	3692.00
411.87	3697.00
412.33	3726.00
412.79	3742.00
413.25	3727.00
413.71	3735.00
414.18	3731.00
414.64	3751.00
415.10	3739.00
415.56	3703.00
416.02	3722.00
416.49	3769.00
416.95	3772.00
417.41	3747.00
417.87	3720.00
418.33	3761.00
418.80	3722.00
419.26	3777.00
419.72	3779.00
420.18	3800.00
420.64	3801.00
421.10	3778.00
421.57	3799.00
422.03	3804.00
422.49	3766.00
422.95	3733.00
423.41	3744.00
423.87	3794.00
424.34	3805.00
424.80	3817.00
425.26	3787.00
425.72	3814.00
426.18	3772.00
426.64	3782.00
427.10	3807.00
427.57	3744.00
428.03	3777.00
428.49	3715.00
428.95	3713.00
429.41	3677.00
429.87	3677.00
430.33	3637.00
430.79	3632.00
431.26	3645.00
431.72	3797.00
432.18	3887.00
432.64	3868.00
433.10	3869.00
433.56	3939.00
434.02	3918.00
434.48	3881.00
434.94	3956.00
435.40	4043.00
435.87	3974.00
436.33	4014.00
436.79	4057.00
437.25	4046.00
437.71	3958.00
438.17	3969.00
438.63	3976.00
439.09	3959.00
439.55	3969.00
440.01	4084.00
440.47	4089.00
440.93	4065.00
441.39	4138.00
441.85	4170.00
442.32	4212.00
442.78	4214.00
443.24	4185.00
443.70	4224.00
444.16	4193.00
444.62	4240.00
445.08	4254.00
445.54	4243.00
446.00	4163.00
446.46	4214.00
446.92	4252.00
447.38	4330.00
447.84	4343.00
448.30	4338.00
448.76	4357.00
449.22	4346.00
449.68	4420.00
450.14	4411.00
450.60	4479.00
451.06	4475.00
451.52	4420.00
451.98	4437.00
452.44	4408.00
452.90	4357.00
453.36	4323.00
453.82	4321.00
454.28	4431.00
454.74	4443.00
455.20	4425.00
455.66	4474.00
456.12	4473.00
456.58	4534.00
457.04	4453.00
457.50	4500.00
457.96	4485.00
458.42	4526.00
458.88	4444.00
459.34	4458.00
459.80	4491.00
460.26	4533.00
460.72	4556.00
461.18	4565.00
461.64	4631.00
462.10	4572.00
462.55	4542.00
463.01	4569.00
463.47	4588.00
463.93	4575.00
464.39	4566.00
464.85	4511.00
465.31	4533.00
465.77	4525.00
466.23	4555.00
466.69	4541.00
467.15	4515.00
467.61	4554.00
468.07	4592.00
468.52	4616.00
468.98	4640.00
469.44	4573.00
469.90	4566.00
470.36	4580.00
470.82	4541.00
471.28	4546.00
471.74	4603.00
472.20	4683.00
472.66	4655.00
473.11	4714.00
473.57	4685.00
474.03	4623.00
474.49	4688.00
474.95	4654.00
475.41	4673.00
475.87	4677.00
476.33	4660.00
476.78	4739.00
477.24	4695.00
477.70	4741.00
478.16	4740.00
478.62	4790.00
479.08	4731.00
479.54	4727.00
479.99	4729.00
480.45	4761.00
480.91	4785.00
481.37	4841.00
481.83	4801.00
482.29	4797.00
482.74	4804.00
483.20	4758.00
483.66	4757.00
484.12	4755.00
484.58	4706.00
485.04	4629.00
485.49	4610.00
485.95	4530.00
486.41	4484.00
486.87	4482.00
487.33	4643.00
487.78	4674.00
488.24	4733.00
488.70	4718.00
489.16	4754.00
489.62	4770.00
490.07	4827.00
490.53	4844.00
490.99	4748.00
491.45	4726.00
491.90	4729.00
492.36	4798.00
492.82	4753.00
493.28	4843.00
493.74	4846.00
494.19	4820.00
494.65	4807.00
495.11	4900.00
495.57	4919.00
496.02	4849.00
496.48	4847.00
496.94	4839.00
497.40	4875.00
497.85	4839.00
498.31	4847.00
498.77	4845.00
499.23	4784.00
499.68	4807.00
500.14	4782.00
500.60	4755.00
501.06	4728.00
501.51	4765.00
501.97	4768.00
502.43	4797.00
502.88	4792.00
503.34	4812.00
503.80	4833.00
504.26	4785.00
504.71	4822.00
505.17	4872.00
505.63	4923.00
506.08	4897.00
506.54	4863.00
507.00	4880.00
507.45	4871.00
507.91	4837.00
508.37	4873.00
508.82	4884.00
509.28	4879.00
509.74	4932.00
510.19	4980.00
510.65	4960.00
511.11	4965.00
511.56	4935.00
512.02	4940.00
512.48	4909.00
512.93	4916.00
513.39	4854.00
513.85	4867.00
514.30	4846.00
514.76	4884.00
515.22	4905.00
515.67	4842.00
516.13	4802.00
516.59	4731.00
517.04	4679.00
517.50	4622.00
517.95	4662.00
518.41	4718.00
518.87	4810.00
519.32	4830.00
519.78	4920.00
520.24	4891.00
520.69	4926.00
521.15	5007.00
521.60	4947.00
522.06	4967.00
522.52	4966.00
522.97	4965.00
523.43	5008.00
523.88	5007.00
524.34	5053.00
524.80	5118.00
525.25	5003.00
525.71	4945.00
526.16	4938.00
526.62	4923.00
527.07	4857.00
527.53	4897.00
527.99	5040.00
528.44	5087.00
528.90	5102.00
529.35	5030.00
529.81	5114.00
530.26	5070.00
530.72	5142.00
531.17	5127.00
531.63	5131.00
532.09	5022.00
532.54	5019.00
533.00	5030.00
533.45	4951.00
533.91	5028.00
534.36	5137.00
534.82	5069.00
535.27	5099.00
535.73	5170.00
536.18	5153.00
536.64	5105.00
537.09	5144.00
537.55	5098.00
538.00	5169.00
538.46	5153.00
538.91	5081.00
539.37	5079.00
539.82	5004.00
540.28	5030.00
540.73	5081.00
541.19	5048.00
541.64	5047.00
542.10	5091.00
542.55	5118.00
543.01	5073.00
543.46	5165.00
543.92	5118.00
544.37	5129.00
544.83	5183.00
545.28	5075.00
545.74	5161.00
546.19	5151.00
546.64	5138.00
547.10	5134.00
547.55	5158.00
548.01	5118.00
548.46	5118.00
548.92	5157.00
549.37	5209.00
549.83	5214.00
550.28	5104.00
550.73	5212.00
551.19	5187.00
551.64	5169.00
552.10	5200.00
552.55	5175.00
553.00	5192.00
553.46	5166.00
553.91	5227.00
554.37	5207.00
554.82	5182.00
555.28	5182.00
555.73	5262.00
556.18	5211.00
556.64	5170.00
557.09	5139.00
557.54	5176.00
558.00	5127.00
558.45	5165.00
558.91	5123.00
559.36	5122.00
559.81	5167.00
560.27	5139.00
560.72	5184.00
561.17	5187.00
561.63	5165.00
562.08	5172.00
562.54	5111.00
562.99	5239.00
563.44	5154.00
563.90	5189.00
564.35	5197.00
564.80	5131.00
565.26	5205.00
565.71	5088.00
566.16	5116.00
566.62	5157.00
567.07	5159.00
567.52	5139.00
567.98	5162.00
568.43	5154.00
568.88	5185.00
569.34	5131.00
569.79	5116.00
570.24	5086.00
570.69	5108.00
571.15	5104.00
571.60	5110.00
572.05	5201.00
572.51	5157.00
572.96	5200.00
573.41	5248.00
573.86	5197.00
574.32	5169.00
574.77	5190.00
575.22	5142.00
575.68	5166.00
576.13	5160.00
576.58	5159.00
577.03	5186.00
577.49	5218.00
577.94	5171.00
578.39	5099.00
578.84	5157.00
579.30	5188.00
579.75	5221.00
580.20	5199.00
580.65	5191.00
581.11	5218.00
581.56	5266.00
582.01	5275.00
582.46	5286.00
582.92	5319.00
583.37	5340.00
583.82	5226.00
584.27	5273.00
584.72	5309.00
585.18	5208.00
585.63	5247.00
586.08	5275.00
586.53	5234.00
586.98	5270.00
587.44	5242.00
587.89	5256.00
588.34	5190.00
588.79	4984.00
589.24	5003.00
589.70	4927.00
590.15	5047.00
590.60	5117.00
591.05	5149.00
591.50	5169.00
591.96	5135.00
592.41	5168.00
592.86	5200.00
593.31	5211.00
593.76	5199.00
594.21	5150.00
594.66	5140.00
595.12	5177.00
595.57	5112.00
596.02	5191.00
596.47	5170.00
596.92	5245.00
597.37	5238.00
597.82	5197.00
598.28	5193.00
598.73	5198.00
599.18	5215.00
599.63	5169.00
600.08	5196.00
600.53	5108.00
600.98	5210.00
601.43	5134.00
601.88	5129.00
602.34	5226.00
602.79	5161.00
603.24	5238.00
603.69	5219.00
604.14	5225.00
604.59	5259.00
605.04	5242.00
605.49	5259.00
605.94	5265.00
606.39	5265.00
606.84	5267.00
607.30	5254.00
607.75	5297.00
608.20	5256.00
608.65	5273.00
609.10	5301.00
609.55	5246.00
610.00	5169.00
610.45	5220.00
610.90	5243.00
611.35	5279.00
611.80	5243.00
612.25	5283.00
612.70	5279.00
613.15	5236.00
613.60	5197.00
614.05	5209.00
614.50	5239.00
614.95	5305.00
615.40	5223.00
615.85	5245.00
616.30	5155.00
616.75	5141.00
617.20	5153.00
617.65	5251.00
618.10	5260.00
618.55	5171.00
619.00	5269.00
619.45	5219.00
619.90	5238.00
620.35	5256.00
620.80	5312.00
621.25	5272.00
621.70	5249.00
622.15	5267.00
622.60	5244.00
623.05	5208.00
623.50	5208.00
623.95	5203.00
624.40	5177.00
624.85	5205.00
625.30	5157.00
625.75	5218.00
626.20	5150.00
626.65	5189.00
627.10	5220.00
627.55	5142.00
627.99	5125.00
628.44	5162.00
628.89	5130.00
629.34	5209.00
629.79	5135.00
630.24	5197.00
630.69	5155.00
631.14	5168.00
631.59	5240.00
632.04	5209.00
632.49	5161.00
632.94	5249.00
633.38	5265.00
633.83	5234.00
634.28	5225.00
634.73	5232.00
635.18	5282.00
635.63	5254.00
636.08	5283.00
636.53	5305.00
636.97	5330.00
637.42	5297.00
637.87	5348.00
638.32	5344.00
638.77	5325.00
639.22	5327.00
639.67	5331.00
640.11	5247.00
640.56	5285.00
641.01	5338.00
641.46	5273.00
641.91	5319.00
642.36	5292.00
642.81	5316.00
643.25	5338.00
643.70	5347.00
644.15	5363.00
644.60	5324.00
645.05	5280.00
645.49	5285.00
645.94	5302.00
646.39	5249.00
646.84	5243.00
647.29	5258.00
647.73	5235.00
648.18	5199.00
648.63	5204.00
649.08	5183.00
649.53	5116.00
649.97	5159.00
650.42	5282.00
650.87	5324.00
651.32	5248.00
651.77	5254.00
652.21	5157.00
652.66	5258.00
653.11	5266.00
653.56	5262.00
654.00	5306.00
654.45	5258.00
654.90	5157.00
655.35	5144.00
655.79	4989.00
656.24	4823.00
656.69	4900.00
657.14	4939.00
657.58	5123.00
658.03	5282.00
658.48	5246.00
658.92	5248.00
659.37	5225.00
659.82	5222.00
660.27	5225.00
660.71	5287.00
661.16	5308.00
661.61	5282.00
662.05	5294.00
662.50	5325.00
662.95	5215.00
663.39	5243.00
663.84	5276.00
664.29	5319.00
664.74	5287.00
665.18	5293.00
665.63	5247.00
666.08	5270.00
666.52	5316.00
666.97	5329.00
667.42	5208.00
667.86	5296.00
668.31	5301.00
668.76	5282.00
669.20	5307.00
669.65	5253.00
670.09	5305.00
670.54	5302.00
670.99	5287.00
671.43	5316.00
671.88	5205.00
672.33	5246.00
672.77	5298.00
673.22	5309.00
673.66	5333.00
674.11	5230.00
674.56	5261.00
675.00	5292.00
675.45	5192.00
675.90	5254.00
676.34	5253.00
676.79	5209.00
677.23	5228.00
677.68	5261.00
678.12	5264.00
678.57	5220.00
679.02	5291.00
679.46	5284.00
679.91	5206.00
680.35	5249.00
680.80	5240.00
681.25	5281.00
681.69	5262.00
682.14	5229.00
682.58	5221.00
683.03	5180.00
683.47	5156.00
683.92	5189.00
684.36	5176.00
684.81	5179.00
685.25	5181.00
685.70	5151.00
686.15	5151.00
686.59	4917.00
687.04	4526.00
687.48	4362.00
687.93	4520.00
688.37	4669.00
688.82	4719.00
689.26	4723.00
689.71	4698.00
690.15	4720.00
690.60	4804.00
691.04	4932.00
691.49	4944.00
691.93	4945.00
692.38	4928.00
692.82	4986.00
693.27	4979.00
693.71	4941.00
694.16	4905.00
694.60	4961.00
695.04	4939.00
695.49	4971.00
695.93	4938.00
696.38	4998.00
696.82	5054.00
697.27	5079.00
697.71	5038.00
698.16	5012.00
698.60	4980.00
699.04	5021.00
699.49	4986.00
699.93	4967.00
700.38	4908.00
700.82	4920.00
701.27	4955.00
701.71	4946.00
702.15	4882.00
702.60	4941.00
703.04	4956.00
703.49	4955.00
703.93	5030.00
704.37	5033.00
704.82	5066.00
705.26	5041.00
705.71	5001.00
706.15	5003.00
706.59	5018.00
707.04	5014.00
707.48	5038.00
707.93	5001.00
708.37	5023.00
708.81	5052.00
709.26	4994.00
709.70	4964.00
710.14	5007.00
710.59	5067.00
711.03	5058.00
711.47	5037.00
711.92	4987.00
712.36	5014.00
712.80	4971.00
713.25	4977.00
713.69	5011.00
714.13	5010.00
714.58	4956.00
715.02	4949.00
715.46	4911.00
715.91	4922.00
716.35	4851.00
716.79	4650.00
717.24	4482.00
717.68	4390.00
718.12	4411.00
718.57	4303.00
719.01	4326.00
719.45	4303.00
719.89	4311.00
720.34	4288.00
720.78	4384.00
721.22	4545.00
721.66	4708.00
722.11	4705.00
722.55	4709.00
722.99	4587.00
723.44	4514.00
723.88	4411.00
724.32	4411.00
724.76	4419.00
725.21	4442.00
725.65	4432.00
726.09	4453.00
726.53	4465.00
726.97	4533.00
727.42	4437.00
727.86	4411.00
728.30	4457.00
728.74	4473.00
729.19	4383.00
729.63	4457.00
730.07	4488.00
730.51	4519.00
730.95	4486.00
731.40	4553.00
731.84	4557.00
732.28	4616.00
732.72	4692.00
733.16	4655.00
733.61	4700.00
734.05	4779.00
734.49	4769.00
734.93	4754.00
735.37	4726.00
735.81	4714.00
736.26	4725.00
736.70	4711.00
737.14	4773.00
737.58	4750.00
738.02	4761.00
738.46	4670.00
738.90	4695.00
739.35	4712.00
739.79	4767.00
740.23	4762.00
740.67	4769.00
741.11	4750.00
741.55	4780.00
741.99	4739.00
742.44	4728.00
742.88	4791.00
743.32	4816.00
743.76	4769.00
744.20	4747.00
744.64	4741.00
745.08	4781.00
745.52	4747.00
745.96	4834.00
746.40	4796.00
746.84	4810.00
747.29	4718.00
747.73	4761.00
748.17	4794.00
748.61	4779.00
749.05	4770.00
749.49	4750.00
749.93	4796.00
750.37	4783.00
750.81	4797.00
751.25	4737.00
751.69	4793.00
752.13	4787.00
752.57	4762.00
753.01	4817.00
753.45	4813.00
753.89	4824.00
754.33	4819.00
754.77	4794.00
755.21	4796.00
755.65	4799.00
756.09	4818.00
756.53	4762.00
756.97	4802.00
757.41	4793.00
757.85	4747.00
758.29	4740.00
758.73	4654.00
759.17	4472.00
759.61	3934.00
760.05	3342.00
760.49	2978.00
760.93	2932.00
761.37	3081.00
761.81	3489.00
762.25	3612.00
762.69	3467.00
763.13	3348.00
763.57	3365.00
764.01	3439.00
764.45	3555.00
764.89	3737.00
765.33	3828.00
765.77	3992.00
766.21	4101.00
766.65	4223.00
767.09	4376.00
767.53	4476.00
767.96	4505.00
768.40	4589.00
768.84	4590.00
769.28	4600.00
769.72	4621.00
770.16	4620.00
770.60	4676.00
771.04	4696.00
771.48	4687.00
771.92	4679.00
772.35	4655.00
772.79	4693.00
773.23	4708.00
773.67	4666.00
774.11	4667.00
774.55	4651.00
774.99	4659.00
775.43	4627.00
775.86	4639.00
776.30	4664.00
776.74	4690.00
777.18	4664.00
777.62	4666.00
778.06	4628.00
778.50	4635.00
778.93	4601.00
779.37	4620.00
779.81	4614.00
780.25	4602.00
780.69	4568.00
781.12	4656.00
781.56	4637.00
782.00	4641.00
782.44	4600.00
782.88	4619.00
783.32	4620.00
783.75	4605.00
784.19	4605.00
784.63	4542.00
785.07	4611.00
785.50	4569.00
785.94	4580.00
786.38	4553.00
786.82	4548.00
787.26	4509.00
787.69	4517.00
788.13	4522.00
