SpectraSuite Data File
++++++++++++++++++++++++++++++++++++
Date: Thu Aug 05 09:52:33 EEST 2021
User: CanSEE
Dark Spectrum Present: No
Reference Spectrum Present: No
Number of Sampled Component Spectra: 1
Spectrometers: MAYP112785
Integration Time (usec): 10000 (MAYP112785)
Spectra Averaged: 1 (MAYP112785)
Boxcar Smoothing: 0 (MAYP112785)
Correct for Electrical Dark: No (MAYP112785)
Strobe/Lamp Enabled: No (MAYP112785)
Correct for Detector Non-linearity: No (MAYP112785)
Correct for Stray Light: No (MAYP112785)
Number of Pixels in Processed Spectrum: 2068
>>>>>Begin Processed Spectral Data<<<<<
198.35	3435.00
198.82	2473.00
199.30	2575.00
199.77	2556.00
200.24	2586.00
200.71	2577.00
201.18	2585.00
201.65	2587.00
202.13	2586.00
202.60	2589.00
203.07	2587.00
203.54	2588.00
204.01	2583.00
204.48	2585.00
204.96	2578.00
205.43	2582.00
205.90	2580.00
206.37	2585.00
206.84	2584.00
207.31	2574.00
207.78	2583.00
208.26	2582.00
208.73	2581.00
209.20	2586.00
209.67	2582.00
210.14	2582.00
210.61	2589.00
211.08	2585.00
211.56	2590.00
212.03	2579.00
212.50	2579.00
212.97	2579.00
213.44	2583.00
213.91	2581.00
214.38	2584.00
214.85	2578.00
215.33	2584.00
215.80	2577.00
216.27	2579.00
216.74	2584.00
217.21	2582.00
217.68	2588.00
218.15	2583.00
218.62	2586.00
219.09	2579.00
219.57	2583.00
220.04	2581.00
220.51	2584.00
220.98	2582.00
221.45	2588.00
221.92	2582.00
222.39	2587.00
222.86	2591.00
223.33	2588.00
223.80	2581.00
224.27	2580.00
224.74	2584.00
225.22	2583.00
225.69	2587.00
226.16	2583.00
226.63	2582.00
227.10	2585.00
227.57	2582.00
228.04	2589.00
228.51	2582.00
228.98	2590.00
229.45	2582.00
229.92	2583.00
230.39	2582.00
230.86	2582.00
231.33	2577.00
231.80	2587.00
232.27	2583.00
232.75	2585.00
233.22	2581.00
233.69	2581.00
234.16	2581.00
234.63	2588.00
235.10	2583.00
235.57	2581.00
236.04	2588.00
236.51	2579.00
236.98	2580.00
237.45	2585.00
237.92	2582.00
238.39	2576.00
238.86	2579.00
239.33	2624.00
239.80	2584.00
240.27	2584.00
240.74	2580.00
241.21	2580.00
241.68	2587.00
242.15	2571.00
242.62	2585.00
243.09	2578.00
243.56	2586.00
244.03	2581.00
244.50	2583.00
244.97	2583.00
245.44	2594.00
245.91	2586.00
246.38	2581.00
246.85	2583.00
247.32	2579.00
247.79	2580.00
248.26	2593.00
248.73	2583.00
249.20	2580.00
249.67	2590.00
250.14	2585.00
250.61	2581.00
251.08	2585.00
251.55	2580.00
252.02	2582.00
252.49	2579.00
252.96	2585.00
253.43	2584.00
253.90	2579.00
254.37	2583.00
254.84	2582.00
255.31	2582.00
255.77	2590.00
256.24	2579.00
256.71	2582.00
257.18	2591.00
257.65	2582.00
258.12	2580.00
258.59	2586.00
259.06	2590.00
259.53	2579.00
260.00	2584.00
260.47	2582.00
260.94	2587.00
261.41	2586.00
261.88	2592.00
262.35	2584.00
262.81	2575.00
263.28	2581.00
263.75	2583.00
264.22	2585.00
264.69	2586.00
265.16	2585.00
265.63	2582.00
266.10	2580.00
266.57	2579.00
267.04	2583.00
267.51	2578.00
267.97	2578.00
268.44	2579.00
268.91	2586.00
269.38	2582.00
269.85	2582.00
270.32	2581.00
270.79	2588.00
271.26	2578.00
271.73	2586.00
272.19	2586.00
272.66	2587.00
273.13	2584.00
273.60	2585.00
274.07	2586.00
274.54	2589.00
275.01	2583.00
275.48	2583.00
275.94	2581.00
276.41	2585.00
276.88	2582.00
277.35	2581.00
277.82	2578.00
278.29	2580.00
278.76	2583.00
279.22	2580.00
279.69	2580.00
280.16	2585.00
280.63	2578.00
281.10	2582.00
281.57	2581.00
282.04	2588.00
282.50	2583.00
282.97	2586.00
283.44	2578.00
283.91	2582.00
284.38	2582.00
284.85	2582.00
285.31	2581.00
285.78	2580.00
286.25	2582.00
286.72	2586.00
287.19	2584.00
287.65	2587.00
288.12	2589.00
288.59	2581.00
289.06	2573.00
289.53	2584.00
289.99	2581.00
290.46	2580.00
290.93	2580.00
291.40	2582.00
291.87	2577.00
292.33	2584.00
292.80	2580.00
293.27	2583.00
293.74	2580.00
294.21	2581.00
294.67	2583.00
295.14	2582.00
295.61	2590.00
296.08	2582.00
296.54	2584.00
297.01	2589.00
297.48	2587.00
297.95	2579.00
298.42	2580.00
298.88	2586.00
299.35	2589.00
299.82	2585.00
300.29	2579.00
300.75	2578.00
301.22	2576.00
301.69	2588.00
302.16	2582.00
302.62	2586.00
303.09	2583.00
303.56	2581.00
304.03	2585.00
304.49	2584.00
304.96	2588.00
305.43	2594.00
305.90	2582.00
306.36	2583.00
306.83	2594.00
307.30	2590.00
307.76	2595.00
308.23	2593.00
308.70	2594.00
309.17	2595.00
309.63	2599.00
310.10	2605.00
310.57	2610.00
311.03	2610.00
311.50	2609.00
311.97	2612.00
312.44	2616.00
312.90	2618.00
313.37	2617.00
313.84	2628.00
314.30	2626.00
314.77	2626.00
315.24	2628.00
315.70	2637.00
316.17	2630.00
316.64	2651.00
317.10	2657.00
317.57	2656.00
318.04	2648.00
318.50	2656.00
318.97	2658.00
319.44	2655.00
319.90	2662.00
320.37	2668.00
320.84	2672.00
321.30	2663.00
321.77	2668.00
322.24	2673.00
322.70	2673.00
323.17	2686.00
323.64	2700.00
324.10	2695.00
324.57	2697.00
325.04	2720.00
325.50	2701.00
325.97	2735.00
326.44	2741.00
326.90	2736.00
327.37	2742.00
327.84	2749.00
328.30	2733.00
328.77	2752.00
329.23	2779.00
329.70	2796.00
330.17	2774.00
330.63	2790.00
331.10	2755.00
331.56	2766.00
332.03	2775.00
332.50	2780.00
332.96	2775.00
333.43	2769.00
333.90	2764.00
334.36	2780.00
334.83	2768.00
335.29	2799.00
335.76	2777.00
336.22	2773.00
336.69	2772.00
337.16	2763.00
337.62	2762.00
338.09	2781.00
338.55	2785.00
339.02	2810.00
339.49	2806.00
339.95	2819.00
340.42	2804.00
340.88	2847.00
341.35	2808.00
341.81	2809.00
342.28	2807.00
342.75	2838.00
343.21	2819.00
343.68	2814.00
344.14	2806.00
344.61	2787.00
345.07	2809.00
345.54	2836.00
346.00	2850.00
346.47	2824.00
346.93	2846.00
347.40	2827.00
347.87	2818.00
348.33	2819.00
348.80	2856.00
349.26	2841.00
349.73	2873.00
350.19	2878.00
350.66	2907.00
351.12	2901.00
351.59	2875.00
352.05	2878.00
352.52	2872.00
352.98	2850.00
353.45	2884.00
353.91	2906.00
354.38	2902.00
354.84	2902.00
355.31	2894.00
355.77	2894.00
356.24	2869.00
356.70	2867.00
357.17	2849.00
357.63	2833.00
358.10	2833.00
358.56	2835.00
359.03	2851.00
359.49	2874.00
359.96	2908.00
360.42	2891.00
360.89	2877.00
361.35	2887.00
361.82	2884.00
362.28	2910.00
362.75	2916.00
363.21	2938.00
363.67	2915.00
364.14	2939.00
364.60	2963.00
365.07	2966.00
365.53	2981.00
366.00	3003.00
366.46	2995.00
366.93	3011.00
367.39	2999.00
367.86	2981.00
368.32	2959.00
368.78	2993.00
369.25	2995.00
369.71	2998.00
370.18	2997.00
370.64	2997.00
371.11	2993.00
371.57	2986.00
372.03	3018.00
372.50	2966.00
372.96	2956.00
373.43	2943.00
373.89	2921.00
374.35	2934.00
374.82	2946.00
375.28	2939.00
375.75	2982.00
376.21	3015.00
376.67	3041.00
377.14	3029.00
377.60	3069.00
378.07	3075.00
378.53	3100.00
378.99	3072.00
379.46	3031.00
379.92	3025.00
380.39	3056.00
380.85	3070.00
381.31	3046.00
381.78	3020.00
382.24	2967.00
382.70	2916.00
383.17	2903.00
383.63	2909.00
384.09	2943.00
384.56	3005.00
385.02	3040.00
385.48	3034.00
385.95	3025.00
386.41	3035.00
386.88	3043.00
387.34	3057.00
387.80	3045.00
388.27	3061.00
388.73	3078.00
389.19	3107.00
389.66	3128.00
390.12	3176.00
390.58	3165.00
391.05	3188.00
391.51	3174.00
391.97	3159.00
392.43	3107.00
392.90	3047.00
393.36	2966.00
393.82	2983.00
394.29	3047.00
394.75	3115.00
395.21	3144.00
395.68	3203.00
396.14	3183.00
396.60	3134.00
397.07	3077.00
397.53	3137.00
397.99	3263.00
398.45	3370.00
398.92	3439.00
399.38	3465.00
399.84	3506.00
400.31	3513.00
400.77	3520.00
401.23	3506.00
401.69	3557.00
402.16	3575.00
402.62	3579.00
403.08	3556.00
403.54	3556.00
404.01	3575.00
404.47	3547.00
404.93	3516.00
405.39	3548.00
405.86	3555.00
406.32	3518.00
406.78	3554.00
407.24	3547.00
407.71	3608.00
408.17	3581.00
408.63	3633.00
409.09	3635.00
409.56	3690.00
410.02	3611.00
410.48	3590.00
410.94	3598.00
411.40	3728.00
411.87	3718.00
412.33	3739.00
412.79	3703.00
413.25	3736.00
413.71	3693.00
414.18	3734.00
414.64	3723.00
415.10	3772.00
415.56	3779.00
416.02	3781.00
416.49	3775.00
416.95	3786.00
417.41	3749.00
417.87	3709.00
418.33	3774.00
418.80	3745.00
419.26	3748.00
419.72	3793.00
420.18	3775.00
420.64	3774.00
421.10	3848.00
421.57	3812.00
422.03	3787.00
422.49	3775.00
422.95	3734.00
423.41	3771.00
423.87	3825.00
424.34	3799.00
424.80	3807.00
425.26	3797.00
425.72	3770.00
426.18	3784.00
426.64	3769.00
427.10	3764.00
427.57	3766.00
428.03	3759.00
428.49	3755.00
428.95	3722.00
429.41	3617.00
429.87	3652.00
430.33	3610.00
430.79	3637.00
431.26	3644.00
431.72	3781.00
432.18	3923.00
432.64	3894.00
433.10	3870.00
433.56	3906.00
434.02	3927.00
434.48	3882.00
434.94	3910.00
435.40	4022.00
435.87	4056.00
436.33	4061.00
436.79	4007.00
437.25	4014.00
437.71	3998.00
438.17	3966.00
438.63	3918.00
439.09	3962.00
439.55	4009.00
440.01	4052.00
440.47	4061.00
440.93	4033.00
441.39	4101.00
441.85	4159.00
442.32	4215.00
442.78	4202.00
443.24	4226.00
443.70	4217.00
444.16	4198.00
444.62	4196.00
445.08	4204.00
445.54	4227.00
446.00	4189.00
446.46	4214.00
446.92	4238.00
447.38	4324.00
447.84	4347.00
448.30	4335.00
448.76	4330.00
449.22	4366.00
449.68	4373.00
450.14	4397.00
450.60	4446.00
451.06	4478.00
451.52	4494.00
451.98	4413.00
452.44	4382.00
452.90	4348.00
453.36	4392.00
453.82	4379.00
454.28	4427.00
454.74	4388.00
455.20	4438.00
455.66	4441.00
456.12	4479.00
456.58	4510.00
457.04	4460.00
457.50	4503.00
457.96	4482.00
458.42	4498.00
458.88	4462.00
459.34	4483.00
459.80	4528.00
460.26	4500.00
460.72	4559.00
461.18	4562.00
461.64	4590.00
462.10	4590.00
462.55	4599.00
463.01	4619.00
463.47	4501.00
463.93	4613.00
464.39	4579.00
464.85	4652.00
465.31	4514.00
465.77	4493.00
466.23	4565.00
466.69	4584.00
467.15	4467.00
467.61	4544.00
468.07	4588.00
468.52	4561.00
468.98	4580.00
469.44	4629.00
469.90	4581.00
470.36	4573.00
470.82	4564.00
471.28	4620.00
471.74	4633.00
472.20	4715.00
472.66	4720.00
473.11	4677.00
473.57	4649.00
474.03	4662.00
474.49	4660.00
474.95	4679.00
475.41	4669.00
475.87	4701.00
476.33	4674.00
476.78	4697.00
477.24	4664.00
477.70	4714.00
478.16	4721.00
478.62	4753.00
479.08	4743.00
479.54	4707.00
479.99	4735.00
480.45	4833.00
480.91	4798.00
481.37	4819.00
481.83	4748.00
482.29	4822.00
482.74	4796.00
483.20	4758.00
483.66	4771.00
484.12	4762.00
484.58	4665.00
485.04	4650.00
485.49	4578.00
485.95	4521.00
486.41	4488.00
486.87	4486.00
487.33	4646.00
487.78	4694.00
488.24	4704.00
488.70	4783.00
489.16	4760.00
489.62	4759.00
490.07	4815.00
490.53	4835.00
490.99	4798.00
491.45	4686.00
491.90	4766.00
492.36	4784.00
492.82	4703.00
493.28	4820.00
493.74	4805.00
494.19	4821.00
494.65	4882.00
495.11	4857.00
495.57	4879.00
496.02	4869.00
496.48	4867.00
496.94	4920.00
497.40	4869.00
497.85	4844.00
498.31	4835.00
498.77	4778.00
499.23	4800.00
499.68	4800.00
500.14	4838.00
500.60	4738.00
501.06	4706.00
501.51	4754.00
501.97	4714.00
502.43	4717.00
502.88	4747.00
503.34	4757.00
503.80	4895.00
504.26	4820.00
504.71	4782.00
505.17	4886.00
505.63	4933.00
506.08	4905.00
506.54	4847.00
507.00	4888.00
507.45	4865.00
507.91	4872.00
508.37	4887.00
508.82	4877.00
509.28	4883.00
509.74	4909.00
510.19	4910.00
510.65	4935.00
511.11	4965.00
511.56	4942.00
512.02	4886.00
512.48	4993.00
512.93	4921.00
513.39	4861.00
513.85	4892.00
514.30	4901.00
514.76	4905.00
515.22	4852.00
515.67	4867.00
516.13	4759.00
516.59	4800.00
517.04	4694.00
517.50	4601.00
517.95	4660.00
518.41	4791.00
518.87	4784.00
519.32	4793.00
519.78	4896.00
520.24	4933.00
520.69	4971.00
521.15	4919.00
521.60	4909.00
522.06	4953.00
522.52	4922.00
522.97	4958.00
523.43	5009.00
523.88	5059.00
524.34	5050.00
524.80	5085.00
525.25	5093.00
525.71	4975.00
526.16	4970.00
526.62	4860.00
527.07	4855.00
527.53	4912.00
527.99	5033.00
528.44	5042.00
528.90	5053.00
529.35	5128.00
529.81	5106.00
530.26	5112.00
530.72	5071.00
531.17	5105.00
531.63	5107.00
532.09	5058.00
532.54	5026.00
533.00	5037.00
533.45	5031.00
533.91	5006.00
534.36	5108.00
534.82	5093.00
535.27	5154.00
535.73	5136.00
536.18	5140.00
536.64	5126.00
537.09	5105.00
537.55	5058.00
538.00	5124.00
538.46	5117.00
538.91	5124.00
539.37	5047.00
539.82	5048.00
540.28	5015.00
540.73	5084.00
541.19	5040.00
541.64	5063.00
542.10	5030.00
542.55	5077.00
543.01	5108.00
543.46	5109.00
543.92	5120.00
544.37	5198.00
544.83	5196.00
545.28	5105.00
545.74	5077.00
546.19	5162.00
546.64	5141.00
547.10	5114.00
547.55	5129.00
548.01	5132.00
548.46	5184.00
548.92	5173.00
549.37	5144.00
549.83	5237.00
550.28	5172.00
550.73	5187.00
551.19	5194.00
551.64	5248.00
552.10	5196.00
552.55	5229.00
553.00	5137.00
553.46	5163.00
553.91	5199.00
554.37	5222.00
554.82	5217.00
555.28	5234.00
555.73	5214.00
556.18	5180.00
556.64	5180.00
557.09	5128.00
557.54	5163.00
558.00	5175.00
558.45	5105.00
558.91	5141.00
559.36	5096.00
559.81	5100.00
560.27	5126.00
560.72	5149.00
561.17	5180.00
561.63	5181.00
562.08	5143.00
562.54	5200.00
562.99	5207.00
563.44	5164.00
563.90	5221.00
564.35	5167.00
564.80	5223.00
565.26	5120.00
565.71	5143.00
566.16	5164.00
566.62	5174.00
567.07	5127.00
567.52	5192.00
567.98	5123.00
568.43	5219.00
568.88	5153.00
569.34	5114.00
569.79	5135.00
570.24	5110.00
570.69	5046.00
571.15	5127.00
571.60	5118.00
572.05	5174.00
572.51	5184.00
572.96	5166.00
573.41	5220.00
573.86	5182.00
574.32	5193.00
574.77	5192.00
575.22	5143.00
575.68	5117.00
576.13	5099.00
576.58	5162.00
577.03	5144.00
577.49	5172.00
577.94	5205.00
578.39	5151.00
578.84	5149.00
579.30	5199.00
579.75	5169.00
580.20	5244.00
580.65	5218.00
581.11	5200.00
581.56	5301.00
582.01	5272.00
582.46	5310.00
582.92	5314.00
583.37	5265.00
583.82	5299.00
584.27	5273.00
584.72	5275.00
585.18	5283.00
585.63	5261.00
586.08	5208.00
586.53	5201.00
586.98	5270.00
587.44	5261.00
587.89	5238.00
588.34	5121.00
588.79	5021.00
589.24	4939.00
589.70	4930.00
590.15	5051.00
590.60	5128.00
591.05	5142.00
591.50	5135.00
591.96	5160.00
592.41	5164.00
592.86	5198.00
593.31	5169.00
593.76	5184.00
594.21	5151.00
594.66	5138.00
595.12	5190.00
595.57	5121.00
596.02	5189.00
596.47	5164.00
596.92	5193.00
597.37	5219.00
597.82	5133.00
598.28	5169.00
598.73	5139.00
599.18	5191.00
599.63	5168.00
600.08	5202.00
600.53	5217.00
600.98	5126.00
601.43	5161.00
601.88	5191.00
602.34	5190.00
602.79	5148.00
603.24	5229.00
603.69	5244.00
604.14	5223.00
604.59	5274.00
605.04	5267.00
605.49	5280.00
605.94	5218.00
606.39	5222.00
606.84	5296.00
607.30	5282.00
607.75	5222.00
608.20	5272.00
608.65	5246.00
609.10	5249.00
609.55	5254.00
610.00	5223.00
610.45	5261.00
610.90	5218.00
611.35	5277.00
611.80	5277.00
612.25	5262.00
612.70	5242.00
613.15	5228.00
613.60	5181.00
614.05	5229.00
614.50	5258.00
614.95	5248.00
615.40	5209.00
615.85	5207.00
616.30	5164.00
616.75	5166.00
617.20	5089.00
617.65	5232.00
618.10	5254.00
618.55	5277.00
619.00	5225.00
619.45	5267.00
619.90	5245.00
620.35	5233.00
620.80	5306.00
621.25	5274.00
621.70	5276.00
622.15	5252.00
622.60	5258.00
623.05	5206.00
623.50	5252.00
623.95	5201.00
624.40	5155.00
624.85	5165.00
625.30	5098.00
625.75	5110.00
626.20	5161.00
626.65	5234.00
627.10	5181.00
627.55	5180.00
627.99	5108.00
628.44	5123.00
628.89	5142.00
629.34	5212.00
629.79	5125.00
630.24	5194.00
630.69	5177.00
631.14	5181.00
631.59	5134.00
632.04	5197.00
632.49	5226.00
632.94	5228.00
633.38	5191.00
633.83	5239.00
634.28	5232.00
634.73	5217.00
635.18	5278.00
635.63	5264.00
636.08	5263.00
636.53	5286.00
636.97	5360.00
637.42	5315.00
637.87	5370.00
638.32	5343.00
638.77	5337.00
639.22	5327.00
639.67	5328.00
640.11	5246.00
640.56	5309.00
641.01	5268.00
641.46	5281.00
641.91	5258.00
642.36	5302.00
642.81	5264.00
643.25	5279.00
643.70	5272.00
644.15	5333.00
644.60	5305.00
645.05	5274.00
645.49	5254.00
645.94	5273.00
646.39	5214.00
646.84	5186.00
647.29	5247.00
647.73	5210.00
648.18	5190.00
648.63	5219.00
649.08	5197.00
649.53	5170.00
649.97	5168.00
650.42	5189.00
650.87	5260.00
651.32	5246.00
651.77	5228.00
652.21	5253.00
652.66	5205.00
653.11	5243.00
653.56	5270.00
654.00	5264.00
654.45	5200.00
654.90	5124.00
655.35	5104.00
655.79	4959.00
656.24	4823.00
656.69	4836.00
657.14	4922.00
657.58	5108.00
658.03	5182.00
658.48	5263.00
658.92	5202.00
659.37	5220.00
659.82	5251.00
660.27	5256.00
660.71	5306.00
661.16	5250.00
661.61	5324.00
662.05	5278.00
662.50	5361.00
662.95	5333.00
663.39	5304.00
663.84	5266.00
664.29	5312.00
664.74	5237.00
665.18	5280.00
665.63	5340.00
666.08	5376.00
666.52	5246.00
666.97	5335.00
667.42	5232.00
667.86	5243.00
668.31	5263.00
668.76	5315.00
669.20	5290.00
669.65	5260.00
670.09	5239.00
670.54	5281.00
670.99	5280.00
671.43	5206.00
671.88	5226.00
672.33	5262.00
672.77	5253.00
673.22	5235.00
673.66	5294.00
674.11	5328.00
674.56	5276.00
675.00	5287.00
675.45	5214.00
675.90	5304.00
676.34	5265.00
676.79	5256.00
677.23	5214.00
677.68	5272.00
678.12	5227.00
678.57	5283.00
679.02	5207.00
679.46	5258.00
679.91	5226.00
680.35	5214.00
680.80	5279.00
681.25	5216.00
681.69	5174.00
682.14	5209.00
682.58	5217.00
683.03	5242.00
683.47	5191.00
683.92	5247.00
684.36	5201.00
684.81	5245.00
685.25	5213.00
685.70	5135.00
686.15	5082.00
686.59	4861.00
687.04	4533.00
687.48	4383.00
687.93	4504.00
688.37	4677.00
688.82	4750.00
689.26	4732.00
689.71	4689.00
690.15	4779.00
690.60	4820.00
691.04	4860.00
691.49	4900.00
691.93	4940.00
692.38	4942.00
692.82	4963.00
693.27	4983.00
693.71	4933.00
694.16	4914.00
694.60	4949.00
695.04	4946.00
695.49	4947.00
695.93	5019.00
696.38	5000.00
696.82	5081.00
697.27	5090.00
697.71	5049.00
698.16	5061.00
698.60	4992.00
699.04	4997.00
699.49	4981.00
699.93	4963.00
700.38	4949.00
700.82	4909.00
701.27	4965.00
701.71	4931.00
702.15	4909.00
702.60	4892.00
703.04	4959.00
703.49	4953.00
703.93	4976.00
704.37	5000.00
704.82	5089.00
705.26	5045.00
705.71	5008.00
706.15	4992.00
706.59	4987.00
707.04	5031.00
707.48	5055.00
707.93	5042.00
708.37	5010.00
708.81	4990.00
709.26	5070.00
709.70	5056.00
710.14	5028.00
710.59	5008.00
711.03	5000.00
711.47	4953.00
711.92	5060.00
712.36	4958.00
712.80	5027.00
713.25	5003.00
713.69	4998.00
714.13	4980.00
714.58	4961.00
715.02	4901.00
715.46	4935.00
715.91	4897.00
716.35	4855.00
716.79	4675.00
717.24	4492.00
717.68	4403.00
718.12	4378.00
718.57	4353.00
719.01	4310.00
719.45	4287.00
719.89	4274.00
720.34	4312.00
720.78	4375.00
721.22	4500.00
721.66	4699.00
722.11	4716.00
722.55	4645.00
722.99	4613.00
723.44	4499.00
723.88	4369.00
724.32	4356.00
724.76	4433.00
725.21	4406.00
725.65	4470.00
726.09	4465.00
726.53	4470.00
726.97	4506.00
727.42	4462.00
727.86	4401.00
728.30	4449.00
728.74	4467.00
729.19	4421.00
729.63	4477.00
730.07	4465.00
730.51	4516.00
730.95	4512.00
731.40	4498.00
731.84	4532.00
732.28	4640.00
732.72	4672.00
733.16	4701.00
733.61	4704.00
734.05	4734.00
734.49	4748.00
734.93	4762.00
735.37	4721.00
735.81	4686.00
736.26	4748.00
736.70	4714.00
737.14	4761.00
737.58	4761.00
738.02	4723.00
738.46	4711.00
738.90	4706.00
739.35	4739.00
739.79	4746.00
740.23	4770.00
740.67	4693.00
741.11	4747.00
741.55	4759.00
741.99	4693.00
742.44	4738.00
742.88	4757.00
743.32	4751.00
743.76	4776.00
744.20	4761.00
744.64	4734.00
745.08	4742.00
745.52	4806.00
745.96	4802.00
746.40	4811.00
746.84	4788.00
747.29	4777.00
747.73	4795.00
748.17	4788.00
748.61	4818.00
749.05	4799.00
749.49	4759.00
749.93	4740.00
750.37	4800.00
750.81	4763.00
751.25	4769.00
751.69	4795.00
752.13	4777.00
752.57	4803.00
753.01	4761.00
753.45	4748.00
753.89	4801.00
754.33	4795.00
754.77	4798.00
755.21	4776.00
755.65	4791.00
756.09	4833.00
756.53	4779.00
756.97	4845.00
757.41	4776.00
757.85	4724.00
758.29	4692.00
758.73	4678.00
759.17	4458.00
759.61	3940.00
760.05	3339.00
760.49	2972.00
760.93	2925.00
761.37	3113.00
761.81	3498.00
762.25	3637.00
762.69	3471.00
763.13	3370.00
763.57	3363.00
764.01	3439.00
764.45	3599.00
764.89	3715.00
765.33	3853.00
765.77	3974.00
766.21	4155.00
766.65	4258.00
767.09	4359.00
767.53	4447.00
767.96	4530.00
768.40	4533.00
768.84	4605.00
769.28	4571.00
769.72	4629.00
770.16	4643.00
770.60	4697.00
771.04	4698.00
771.48	4677.00
771.92	4702.00
772.35	4661.00
772.79	4675.00
773.23	4670.00
773.67	4649.00
774.11	4668.00
774.55	4655.00
774.99	4637.00
775.43	4618.00
775.86	4663.00
776.30	4692.00
776.74	4676.00
777.18	4714.00
777.62	4678.00
778.06	4648.00
778.50	4686.00
778.93	4621.00
779.37	4630.00
779.81	4604.00
780.25	4575.00
780.69	4521.00
781.12	4623.00
781.56	4595.00
782.00	4647.00
782.44	4661.00
782.88	4647.00
783.32	4555.00
783.75	4561.00
784.19	4568.00
784.63	4614.00
785.07	4575.00
785.50	4562.00
785.94	4564.00
786.38	4523.00
786.82	4542.00
787.26	4504.00
787.69	4526.00
788.13	4510.00
