SpectraSuite Data File
++++++++++++++++++++++++++++++++++++
Date: Thu Aug 05 09:52:33 EEST 2021
User: CanSEE
Dark Spectrum Present: No
Reference Spectrum Present: No
Number of Sampled Component Spectra: 1
Spectrometers: MAYP112785
Integration Time (usec): 10000 (MAYP112785)
Spectra Averaged: 1 (MAYP112785)
Boxcar Smoothing: 0 (MAYP112785)
Correct for Electrical Dark: No (MAYP112785)
Strobe/Lamp Enabled: No (MAYP112785)
Correct for Detector Non-linearity: No (MAYP112785)
Correct for Stray Light: No (MAYP112785)
Number of Pixels in Processed Spectrum: 2068
>>>>>Begin Processed Spectral Data<<<<<
198.35	3434.00
198.82	2473.00
199.30	2575.00
199.77	2556.00
200.24	2572.00
200.71	2585.00
201.18	2583.00
201.65	2588.00
202.13	2583.00
202.60	2588.00
203.07	2596.00
203.54	2587.00
204.01	2579.00
204.48	2589.00
204.96	2578.00
205.43	2587.00
205.90	2581.00
206.37	2581.00
206.84	2582.00
207.31	2578.00
207.78	2574.00
208.26	2576.00
208.73	2581.00
209.20	2583.00
209.67	2581.00
210.14	2583.00
210.61	2580.00
211.08	2583.00
211.56	2584.00
212.03	2578.00
212.50	2578.00
212.97	2581.00
213.44	2582.00
213.91	2583.00
214.38	2582.00
214.85	2579.00
215.33	2576.00
215.80	2577.00
216.27	2579.00
216.74	2583.00
217.21	2585.00
217.68	2580.00
218.15	2584.00
218.62	2584.00
219.09	2580.00
219.57	2573.00
220.04	2580.00
220.51	2583.00
220.98	2581.00
221.45	2588.00
221.92	2583.00
222.39	2585.00
222.86	2584.00
223.33	2579.00
223.80	2579.00
224.27	2583.00
224.74	2578.00
225.22	2585.00
225.69	2580.00
226.16	2584.00
226.63	2587.00
227.10	2577.00
227.57	2582.00
228.04	2583.00
228.51	2581.00
228.98	2582.00
229.45	2575.00
229.92	2583.00
230.39	2580.00
230.86	2587.00
231.33	2590.00
231.80	2586.00
232.27	2583.00
232.75	2590.00
233.22	2580.00
233.69	2581.00
234.16	2578.00
234.63	2583.00
235.10	2578.00
235.57	2583.00
236.04	2584.00
236.51	2586.00
236.98	2573.00
237.45	2584.00
237.92	2586.00
238.39	2587.00
238.86	2583.00
239.33	2635.00
239.80	2584.00
240.27	2578.00
240.74	2578.00
241.21	2579.00
241.68	2582.00
242.15	2577.00
242.62	2583.00
243.09	2579.00
243.56	2585.00
244.03	2583.00
244.50	2579.00
244.97	2585.00
245.44	2597.00
245.91	2580.00
246.38	2585.00
246.85	2583.00
247.32	2584.00
247.79	2589.00
248.26	2585.00
248.73	2580.00
249.20	2580.00
249.67	2582.00
250.14	2585.00
250.61	2576.00
251.08	2581.00
251.55	2577.00
252.02	2578.00
252.49	2586.00
252.96	2583.00
253.43	2586.00
253.90	2577.00
254.37	2579.00
254.84	2592.00
255.31	2582.00
255.77	2581.00
256.24	2584.00
256.71	2576.00
257.18	2591.00
257.65	2586.00
258.12	2586.00
258.59	2588.00
259.06	2586.00
259.53	2580.00
260.00	2589.00
260.47	2581.00
260.94	2582.00
261.41	2593.00
261.88	2589.00
262.35	2585.00
262.81	2587.00
263.28	2572.00
263.75	2585.00
264.22	2582.00
264.69	2587.00
265.16	2581.00
265.63	2585.00
266.10	2588.00
266.57	2579.00
267.04	2578.00
267.51	2579.00
267.97	2577.00
268.44	2588.00
268.91	2584.00
269.38	2580.00
269.85	2584.00
270.32	2583.00
270.79	2582.00
271.26	2586.00
271.73	2583.00
272.19	2578.00
272.66	2587.00
273.13	2582.00
273.60	2580.00
274.07	2591.00
274.54	2582.00
275.01	2580.00
275.48	2584.00
275.94	2578.00
276.41	2583.00
276.88	2578.00
277.35	2585.00
277.82	2586.00
278.29	2590.00
278.76	2581.00
279.22	2581.00
279.69	2576.00
280.16	2589.00
280.63	2586.00
281.10	2586.00
281.57	2575.00
282.04	2580.00
282.50	2581.00
282.97	2585.00
283.44	2579.00
283.91	2585.00
284.38	2576.00
284.85	2585.00
285.31	2576.00
285.78	2590.00
286.25	2584.00
286.72	2584.00
287.19	2576.00
287.65	2584.00
288.12	2582.00
288.59	2583.00
289.06	2584.00
289.53	2585.00
289.99	2585.00
290.46	2581.00
290.93	2577.00
291.40	2587.00
291.87	2582.00
292.33	2577.00
292.80	2580.00
293.27	2585.00
293.74	2575.00
294.21	2579.00
294.67	2588.00
295.14	2582.00
295.61	2583.00
296.08	2582.00
296.54	2580.00
297.01	2576.00
297.48	2583.00
297.95	2579.00
298.42	2585.00
298.88	2582.00
299.35	2582.00
299.82	2588.00
300.29	2586.00
300.75	2580.00
301.22	2593.00
301.69	2582.00
302.16	2582.00
302.62	2587.00
303.09	2582.00
303.56	2583.00
304.03	2587.00
304.49	2586.00
304.96	2585.00
305.43	2590.00
305.90	2586.00
306.36	2596.00
306.83	2585.00
307.30	2587.00
307.76	2592.00
308.23	2590.00
308.70	2601.00
309.17	2597.00
309.63	2596.00
310.10	2596.00
310.57	2603.00
311.03	2603.00
311.50	2602.00
311.97	2615.00
312.44	2608.00
312.90	2623.00
313.37	2622.00
313.84	2617.00
314.30	2627.00
314.77	2619.00
315.24	2636.00
315.70	2644.00
316.17	2625.00
316.64	2646.00
317.10	2645.00
317.57	2649.00
318.04	2644.00
318.50	2650.00
318.97	2653.00
319.44	2656.00
319.90	2669.00
320.37	2675.00
320.84	2681.00
321.30	2686.00
321.77	2666.00
322.24	2677.00
322.70	2675.00
323.17	2668.00
323.64	2679.00
324.10	2694.00
324.57	2710.00
325.04	2715.00
325.50	2712.00
325.97	2725.00
326.44	2750.00
326.90	2757.00
327.37	2740.00
327.84	2746.00
328.30	2762.00
328.77	2732.00
329.23	2762.00
329.70	2801.00
330.17	2784.00
330.63	2776.00
331.10	2757.00
331.56	2754.00
332.03	2774.00
332.50	2788.00
332.96	2783.00
333.43	2773.00
333.90	2762.00
334.36	2796.00
334.83	2783.00
335.29	2795.00
335.76	2784.00
336.22	2771.00
336.69	2756.00
337.16	2750.00
337.62	2766.00
338.09	2777.00
338.55	2791.00
339.02	2815.00
339.49	2797.00
339.95	2807.00
340.42	2818.00
340.88	2813.00
341.35	2821.00
341.81	2814.00
342.28	2813.00
342.75	2820.00
343.21	2825.00
343.68	2808.00
344.14	2792.00
344.61	2797.00
345.07	2799.00
345.54	2829.00
346.00	2826.00
346.47	2817.00
346.93	2844.00
347.40	2843.00
347.87	2855.00
348.33	2821.00
348.80	2845.00
349.26	2833.00
349.73	2841.00
350.19	2855.00
350.66	2890.00
351.12	2884.00
351.59	2886.00
352.05	2876.00
352.52	2884.00
352.98	2861.00
353.45	2881.00
353.91	2910.00
354.38	2886.00
354.84	2931.00
355.31	2907.00
355.77	2893.00
356.24	2885.00
356.70	2855.00
357.17	2842.00
357.63	2844.00
358.10	2838.00
358.56	2831.00
359.03	2861.00
359.49	2890.00
359.96	2898.00
360.42	2919.00
360.89	2899.00
361.35	2865.00
361.82	2886.00
362.28	2895.00
362.75	2915.00
363.21	2939.00
363.67	2927.00
364.14	2942.00
364.60	2920.00
365.07	2930.00
365.53	2959.00
366.00	2985.00
366.46	2986.00
366.93	3013.00
367.39	2973.00
367.86	2988.00
368.32	2970.00
368.78	2959.00
369.25	2980.00
369.71	3011.00
370.18	3007.00
370.64	2982.00
371.11	2978.00
371.57	2998.00
372.03	2997.00
372.50	2955.00
372.96	2949.00
373.43	2946.00
373.89	2934.00
374.35	2956.00
374.82	2934.00
375.28	2942.00
375.75	2990.00
376.21	3021.00
376.67	3047.00
377.14	3065.00
377.60	3074.00
378.07	3106.00
378.53	3079.00
378.99	3078.00
379.46	3037.00
379.92	3034.00
380.39	3029.00
380.85	3082.00
381.31	3038.00
381.78	3019.00
382.24	2952.00
382.70	2938.00
383.17	2907.00
383.63	2943.00
384.09	2942.00
384.56	2981.00
385.02	3059.00
385.48	3046.00
385.95	3034.00
386.41	3025.00
386.88	3047.00
387.34	3047.00
387.80	3061.00
388.27	3068.00
388.73	3078.00
389.19	3098.00
389.66	3159.00
390.12	3193.00
390.58	3189.00
391.05	3182.00
391.51	3196.00
391.97	3183.00
392.43	3071.00
392.90	3032.00
393.36	2981.00
393.82	2961.00
394.29	3053.00
394.75	3111.00
395.21	3177.00
395.68	3179.00
396.14	3144.00
396.60	3130.00
397.07	3059.00
397.53	3115.00
397.99	3282.00
398.45	3389.00
398.92	3468.00
399.38	3458.00
399.84	3529.00
400.31	3514.00
400.77	3519.00
401.23	3532.00
401.69	3583.00
402.16	3601.00
402.62	3589.00
403.08	3554.00
403.54	3567.00
404.01	3575.00
404.47	3555.00
404.93	3548.00
405.39	3547.00
405.86	3562.00
406.32	3541.00
406.78	3583.00
407.24	3553.00
407.71	3612.00
408.17	3583.00
408.63	3624.00
409.09	3656.00
409.56	3654.00
410.02	3594.00
410.48	3564.00
410.94	3634.00
411.40	3703.00
411.87	3710.00
412.33	3675.00
412.79	3753.00
413.25	3699.00
413.71	3739.00
414.18	3726.00
414.64	3740.00
415.10	3742.00
415.56	3767.00
416.02	3730.00
416.49	3781.00
416.95	3767.00
417.41	3764.00
417.87	3749.00
418.33	3717.00
418.80	3738.00
419.26	3763.00
419.72	3778.00
420.18	3747.00
420.64	3797.00
421.10	3776.00
421.57	3822.00
422.03	3811.00
422.49	3771.00
422.95	3773.00
423.41	3749.00
423.87	3840.00
424.34	3769.00
424.80	3815.00
425.26	3768.00
425.72	3802.00
426.18	3739.00
426.64	3743.00
427.10	3804.00
427.57	3744.00
428.03	3741.00
428.49	3792.00
428.95	3713.00
429.41	3623.00
429.87	3657.00
430.33	3630.00
430.79	3603.00
431.26	3689.00
431.72	3771.00
432.18	3894.00
432.64	3900.00
433.10	3866.00
433.56	3927.00
434.02	3915.00
434.48	3868.00
434.94	3939.00
435.40	4004.00
435.87	4008.00
436.33	3993.00
436.79	4032.00
437.25	4025.00
437.71	3997.00
438.17	3990.00
438.63	3880.00
439.09	3961.00
439.55	4003.00
440.01	4054.00
440.47	4085.00
440.93	4113.00
441.39	4129.00
441.85	4205.00
442.32	4157.00
442.78	4185.00
443.24	4215.00
443.70	4187.00
444.16	4211.00
444.62	4187.00
445.08	4282.00
445.54	4202.00
446.00	4205.00
446.46	4243.00
446.92	4291.00
447.38	4324.00
447.84	4337.00
448.30	4355.00
448.76	4348.00
449.22	4380.00
449.68	4458.00
450.14	4424.00
450.60	4433.00
451.06	4502.00
451.52	4403.00
451.98	4359.00
452.44	4403.00
452.90	4423.00
453.36	4333.00
453.82	4384.00
454.28	4390.00
454.74	4429.00
455.20	4484.00
455.66	4439.00
456.12	4505.00
456.58	4507.00
457.04	4539.00
457.50	4494.00
457.96	4522.00
458.42	4480.00
458.88	4476.00
459.34	4442.00
459.80	4487.00
460.26	4452.00
460.72	4478.00
461.18	4559.00
461.64	4582.00
462.10	4608.00
462.55	4560.00
463.01	4615.00
463.47	4583.00
463.93	4541.00
464.39	4519.00
464.85	4558.00
465.31	4577.00
465.77	4517.00
466.23	4538.00
466.69	4575.00
467.15	4524.00
467.61	4567.00
468.07	4550.00
468.52	4594.00
468.98	4591.00
469.44	4607.00
469.90	4584.00
470.36	4590.00
470.82	4528.00
471.28	4619.00
471.74	4667.00
472.20	4663.00
472.66	4670.00
473.11	4679.00
473.57	4624.00
474.03	4647.00
474.49	4679.00
474.95	4667.00
475.41	4658.00
475.87	4693.00
476.33	4627.00
476.78	4665.00
477.24	4685.00
477.70	4763.00
478.16	4776.00
478.62	4765.00
479.08	4719.00
479.54	4748.00
479.99	4782.00
480.45	4806.00
480.91	4785.00
481.37	4766.00
481.83	4771.00
482.29	4795.00
482.74	4784.00
483.20	4784.00
483.66	4756.00
484.12	4756.00
484.58	4725.00
485.04	4647.00
485.49	4588.00
485.95	4582.00
486.41	4528.00
486.87	4507.00
487.33	4552.00
487.78	4666.00
488.24	4664.00
488.70	4751.00
489.16	4706.00
489.62	4784.00
490.07	4820.00
490.53	4820.00
490.99	4805.00
491.45	4722.00
491.90	4737.00
492.36	4703.00
492.82	4731.00
493.28	4818.00
493.74	4859.00
494.19	4862.00
494.65	4828.00
495.11	4857.00
495.57	4947.00
496.02	4873.00
496.48	4839.00
496.94	4893.00
497.40	4835.00
497.85	4823.00
498.31	4810.00
498.77	4771.00
499.23	4798.00
499.68	4818.00
500.14	4820.00
500.60	4753.00
501.06	4729.00
501.51	4810.00
501.97	4776.00
502.43	4797.00
502.88	4815.00
503.34	4818.00
503.80	4797.00
504.26	4815.00
504.71	4784.00
505.17	4882.00
505.63	4866.00
506.08	4883.00
506.54	4881.00
507.00	4840.00
507.45	4830.00
507.91	4862.00
508.37	4877.00
508.82	4895.00
509.28	4940.00
509.74	4901.00
510.19	4946.00
510.65	4920.00
511.11	4926.00
511.56	4958.00
512.02	4966.00
512.48	4918.00
512.93	4869.00
513.39	4930.00
513.85	4871.00
514.30	4906.00
514.76	4906.00
515.22	4880.00
515.67	4866.00
516.13	4828.00
516.59	4706.00
517.04	4684.00
517.50	4614.00
517.95	4747.00
518.41	4754.00
518.87	4802.00
519.32	4837.00
519.78	4893.00
520.24	4919.00
520.69	4965.00
521.15	4928.00
521.60	5010.00
522.06	4938.00
522.52	4973.00
522.97	4953.00
523.43	4963.00
523.88	4997.00
524.34	5063.00
524.80	5049.00
525.25	5034.00
525.71	4986.00
526.16	4892.00
526.62	4893.00
527.07	4837.00
527.53	4913.00
527.99	4946.00
528.44	5093.00
528.90	5053.00
529.35	5119.00
529.81	5129.00
530.26	5105.00
530.72	5111.00
531.17	5073.00
531.63	5127.00
532.09	5093.00
532.54	5087.00
533.00	5026.00
533.45	5025.00
533.91	5047.00
534.36	5106.00
534.82	5040.00
535.27	5158.00
535.73	5184.00
536.18	5118.00
536.64	5112.00
537.09	5098.00
537.55	5099.00
538.00	5088.00
538.46	5153.00
538.91	5105.00
539.37	5116.00
539.82	5025.00
540.28	5016.00
540.73	5069.00
541.19	5074.00
541.64	4995.00
542.10	5138.00
542.55	5102.00
543.01	5107.00
543.46	5083.00
543.92	5092.00
544.37	5152.00
544.83	5137.00
545.28	5139.00
545.74	5139.00
546.19	5145.00
546.64	5173.00
547.10	5111.00
547.55	5075.00
548.01	5075.00
548.46	5125.00
548.92	5141.00
549.37	5209.00
549.83	5173.00
550.28	5187.00
550.73	5140.00
551.19	5187.00
551.64	5157.00
552.10	5199.00
552.55	5196.00
553.00	5160.00
553.46	5164.00
553.91	5139.00
554.37	5209.00
554.82	5222.00
555.28	5216.00
555.73	5213.00
556.18	5153.00
556.64	5169.00
557.09	5166.00
557.54	5153.00
558.00	5094.00
558.45	5074.00
558.91	5127.00
559.36	5064.00
559.81	5075.00
560.27	5156.00
560.72	5153.00
561.17	5154.00
561.63	5268.00
562.08	5157.00
562.54	5217.00
562.99	5178.00
563.44	5161.00
563.90	5222.00
564.35	5190.00
564.80	5177.00
565.26	5131.00
565.71	5140.00
566.16	5144.00
566.62	5174.00
567.07	5191.00
567.52	5164.00
567.98	5195.00
568.43	5129.00
568.88	5203.00
569.34	5152.00
569.79	5130.00
570.24	5129.00
570.69	5081.00
571.15	5083.00
571.60	5110.00
572.05	5161.00
572.51	5206.00
572.96	5218.00
573.41	5182.00
573.86	5190.00
574.32	5131.00
574.77	5120.00
575.22	5143.00
575.68	5142.00
576.13	5200.00
576.58	5223.00
577.03	5170.00
577.49	5176.00
577.94	5152.00
578.39	5124.00
578.84	5144.00
579.30	5186.00
579.75	5182.00
580.20	5231.00
580.65	5239.00
581.11	5216.00
581.56	5259.00
582.01	5266.00
582.46	5316.00
582.92	5357.00
583.37	5264.00
583.82	5333.00
584.27	5346.00
584.72	5295.00
585.18	5316.00
585.63	5222.00
586.08	5181.00
586.53	5262.00
586.98	5226.00
587.44	5266.00
587.89	5236.00
588.34	5129.00
588.79	5008.00
589.24	4944.00
589.70	4894.00
590.15	5026.00
590.60	5129.00
591.05	5207.00
591.50	5119.00
591.96	5189.00
592.41	5194.00
592.86	5174.00
593.31	5225.00
593.76	5178.00
594.21	5157.00
594.66	5138.00
595.12	5121.00
595.57	5208.00
596.02	5135.00
596.47	5199.00
596.92	5199.00
597.37	5217.00
597.82	5136.00
598.28	5130.00
598.73	5213.00
599.18	5146.00
599.63	5167.00
600.08	5215.00
600.53	5207.00
600.98	5224.00
601.43	5146.00
601.88	5195.00
602.34	5167.00
602.79	5256.00
603.24	5288.00
603.69	5222.00
604.14	5234.00
604.59	5280.00
605.04	5248.00
605.49	5300.00
605.94	5298.00
606.39	5258.00
606.84	5235.00
607.30	5282.00
607.75	5299.00
608.20	5269.00
608.65	5248.00
609.10	5247.00
609.55	5231.00
610.00	5171.00
610.45	5272.00
610.90	5250.00
611.35	5308.00
611.80	5266.00
612.25	5270.00
612.70	5262.00
613.15	5252.00
613.60	5210.00
614.05	5173.00
614.50	5267.00
614.95	5217.00
615.40	5211.00
615.85	5155.00
616.30	5152.00
616.75	5195.00
617.20	5125.00
617.65	5235.00
618.10	5278.00
618.55	5309.00
619.00	5226.00
619.45	5276.00
619.90	5228.00
620.35	5272.00
620.80	5373.00
621.25	5299.00
621.70	5243.00
622.15	5248.00
622.60	5246.00
623.05	5251.00
623.50	5258.00
623.95	5205.00
624.40	5205.00
624.85	5194.00
625.30	5133.00
625.75	5117.00
626.20	5179.00
626.65	5181.00
627.10	5221.00
627.55	5174.00
627.99	5127.00
628.44	5051.00
628.89	5198.00
629.34	5126.00
629.79	5203.00
630.24	5151.00
630.69	5208.00
631.14	5189.00
631.59	5216.00
632.04	5180.00
632.49	5221.00
632.94	5151.00
633.38	5269.00
633.83	5273.00
634.28	5259.00
634.73	5266.00
635.18	5268.00
635.63	5256.00
636.08	5246.00
636.53	5232.00
636.97	5255.00
637.42	5331.00
637.87	5362.00
638.32	5322.00
638.77	5361.00
639.22	5330.00
639.67	5310.00
640.11	5356.00
640.56	5311.00
641.01	5285.00
641.46	5303.00
641.91	5271.00
642.36	5275.00
642.81	5357.00
643.25	5323.00
643.70	5279.00
644.15	5292.00
644.60	5308.00
645.05	5311.00
645.49	5333.00
645.94	5285.00
646.39	5308.00
646.84	5228.00
647.29	5219.00
647.73	5215.00
648.18	5187.00
648.63	5225.00
649.08	5191.00
649.53	5116.00
649.97	5179.00
650.42	5208.00
650.87	5275.00
651.32	5214.00
651.77	5260.00
652.21	5175.00
652.66	5260.00
653.11	5254.00
653.56	5297.00
654.00	5248.00
654.45	5267.00
654.90	5153.00
655.35	5100.00
655.79	4968.00
656.24	4879.00
656.69	4877.00
657.14	5013.00
657.58	5162.00
658.03	5176.00
658.48	5241.00
658.92	5193.00
659.37	5258.00
659.82	5267.00
660.27	5284.00
660.71	5363.00
661.16	5330.00
661.61	5268.00
662.05	5314.00
662.50	5358.00
662.95	5317.00
663.39	5332.00
663.84	5206.00
664.29	5274.00
664.74	5328.00
665.18	5339.00
665.63	5297.00
666.08	5261.00
666.52	5257.00
666.97	5291.00
667.42	5276.00
667.86	5251.00
668.31	5274.00
668.76	5330.00
669.20	5299.00
669.65	5346.00
670.09	5249.00
670.54	5301.00
670.99	5217.00
671.43	5244.00
671.88	5263.00
672.33	5232.00
672.77	5250.00
673.22	5240.00
673.66	5293.00
674.11	5245.00
674.56	5355.00
675.00	5221.00
675.45	5223.00
675.90	5262.00
676.34	5275.00
676.79	5243.00
677.23	5325.00
677.68	5220.00
678.12	5260.00
678.57	5235.00
679.02	5252.00
679.46	5267.00
679.91	5267.00
680.35	5209.00
680.80	5221.00
681.25	5250.00
681.69	5237.00
682.14	5238.00
682.58	5255.00
683.03	5184.00
683.47	5205.00
683.92	5216.00
684.36	5179.00
684.81	5153.00
685.25	5194.00
685.70	5176.00
686.15	5093.00
686.59	4893.00
687.04	4535.00
687.48	4376.00
687.93	4519.00
688.37	4646.00
688.82	4686.00
689.26	4715.00
689.71	4707.00
690.15	4796.00
690.60	4844.00
691.04	4900.00
691.49	4907.00
691.93	4945.00
692.38	4916.00
692.82	4923.00
693.27	4946.00
693.71	4889.00
694.16	4918.00
694.60	4904.00
695.04	4897.00
695.49	4936.00
695.93	4994.00
696.38	5026.00
696.82	5031.00
697.27	5112.00
697.71	5033.00
698.16	5010.00
698.60	5003.00
699.04	5037.00
699.49	4930.00
699.93	4986.00
700.38	4953.00
700.82	4927.00
701.27	4943.00
701.71	4942.00
702.15	4933.00
702.60	4906.00
703.04	4954.00
703.49	4965.00
703.93	4999.00
704.37	5034.00
704.82	5018.00
705.26	5004.00
705.71	4973.00
706.15	4983.00
706.59	5053.00
707.04	4998.00
707.48	5001.00
707.93	5005.00
708.37	5018.00
708.81	5025.00
709.26	5067.00
709.70	5032.00
710.14	5067.00
710.59	5043.00
711.03	5042.00
711.47	5021.00
711.92	5042.00
712.36	4943.00
712.80	5003.00
713.25	4969.00
713.69	4948.00
714.13	5007.00
714.58	4938.00
715.02	4909.00
715.46	4915.00
715.91	4945.00
716.35	4810.00
716.79	4711.00
717.24	4543.00
717.68	4428.00
718.12	4406.00
718.57	4313.00
719.01	4282.00
719.45	4264.00
719.89	4289.00
720.34	4285.00
720.78	4411.00
721.22	4580.00
721.66	4681.00
722.11	4675.00
722.55	4671.00
722.99	4630.00
723.44	4436.00
723.88	4427.00
724.32	4416.00
724.76	4464.00
725.21	4401.00
725.65	4415.00
726.09	4454.00
726.53	4449.00
726.97	4562.00
727.42	4462.00
727.86	4409.00
728.30	4450.00
728.74	4498.00
729.19	4362.00
729.63	4409.00
730.07	4522.00
730.51	4456.00
730.95	4505.00
731.40	4523.00
731.84	4533.00
732.28	4620.00
732.72	4733.00
733.16	4662.00
733.61	4691.00
734.05	4751.00
734.49	4762.00
734.93	4773.00
735.37	4779.00
735.81	4775.00
736.26	4747.00
736.70	4719.00
737.14	4736.00
737.58	4729.00
738.02	4757.00
738.46	4723.00
738.90	4690.00
739.35	4670.00
739.79	4734.00
740.23	4803.00
740.67	4819.00
741.11	4737.00
741.55	4748.00
741.99	4709.00
742.44	4746.00
742.88	4771.00
743.32	4744.00
743.76	4838.00
744.20	4778.00
744.64	4733.00
745.08	4811.00
745.52	4829.00
745.96	4832.00
746.40	4790.00
746.84	4788.00
747.29	4828.00
747.73	4785.00
748.17	4826.00
748.61	4807.00
749.05	4840.00
749.49	4729.00
749.93	4792.00
750.37	4748.00
750.81	4770.00
751.25	4780.00
751.69	4810.00
752.13	4818.00
752.57	4722.00
753.01	4772.00
753.45	4781.00
753.89	4828.00
754.33	4776.00
754.77	4795.00
755.21	4755.00
755.65	4737.00
756.09	4827.00
756.53	4796.00
756.97	4782.00
757.41	4747.00
757.85	4704.00
758.29	4730.00
758.73	4624.00
759.17	4513.00
759.61	3953.00
760.05	3333.00
760.49	2987.00
760.93	2944.00
761.37	3114.00
761.81	3507.00
762.25	3606.00
762.69	3498.00
763.13	3379.00
763.57	3367.00
764.01	3439.00
764.45	3594.00
764.89	3700.00
765.33	3838.00
765.77	3965.00
766.21	4139.00
766.65	4231.00
767.09	4356.00
767.53	4466.00
767.96	4535.00
768.40	4531.00
768.84	4569.00
769.28	4628.00
769.72	4663.00
770.16	4639.00
770.60	4676.00
771.04	4707.00
771.48	4692.00
771.92	4685.00
772.35	4691.00
772.79	4708.00
773.23	4723.00
773.67	4688.00
774.11	4704.00
774.55	4642.00
774.99	4635.00
775.43	4608.00
775.86	4660.00
776.30	4670.00
776.74	4720.00
777.18	4659.00
777.62	4672.00
778.06	4661.00
778.50	4638.00
778.93	4651.00
779.37	4642.00
779.81	4594.00
780.25	4597.00
780.69	4584.00
781.12	4594.00
781.56	4643.00
782.00	4596.00
782.44	4638.00
782.88	4628.00
783.32	4596.00
783.75	4535.00
784.19	4608.00
784.63	4600.00
785.07	4574.00
785.50	4540.00
785.94	4582.00
786.38	4573.00
786.82	4522.00
787.26	4517.00
787.69	4503.00
788.13	4529.00
