SpectraSuite Data File
++++++++++++++++++++++++++++++++++++
Date: Thu Aug 05 09:52:34 EEST 2021
User: CanSEE
Dark Spectrum Present: No
Reference Spectrum Present: No
Number of Sampled Component Spectra: 1
Spectrometers: MAYP112785
Integration Time (usec): 10000 (MAYP112785)
Spectra Averaged: 1 (MAYP112785)
Boxcar Smoothing: 0 (MAYP112785)
Correct for Electrical Dark: No (MAYP112785)
Strobe/Lamp Enabled: No (MAYP112785)
Correct for Detector Non-linearity: No (MAYP112785)
Correct for Stray Light: No (MAYP112785)
Number of Pixels in Processed Spectrum: 2068
>>>>>Begin Processed Spectral Data<<<<<
198.35	3437.00
198.82	2479.00
199.30	2575.00
199.77	2559.00
200.24	2576.00
200.71	2577.00
201.18	2588.00
201.65	2589.00
202.13	2592.00
202.60	2587.00
203.07	2581.00
203.54	2587.00
204.01	2583.00
204.48	2586.00
204.96	2573.00
205.43	2576.00
205.90	2579.00
206.37	2578.00
206.84	2584.00
207.31	2578.00
207.78	2573.00
208.26	2586.00
208.73	2584.00
209.20	2578.00
209.67	2578.00
210.14	2582.00
210.61	2583.00
211.08	2589.00
211.56	2579.00
212.03	2583.00
212.50	2578.00
212.97	2580.00
213.44	2580.00
213.91	2579.00
214.38	2587.00
214.85	2587.00
215.33	2585.00
215.80	2588.00
216.27	2583.00
216.74	2584.00
217.21	2583.00
217.68	2579.00
218.15	2581.00
218.62	2580.00
219.09	2581.00
219.57	2581.00
220.04	2576.00
220.51	2575.00
220.98	2584.00
221.45	2583.00
221.92	2579.00
222.39	2576.00
222.86	2576.00
223.33	2585.00
223.80	2582.00
224.27	2578.00
224.74	2580.00
225.22	2582.00
225.69	2578.00
226.16	2585.00
226.63	2582.00
227.10	2581.00
227.57	2583.00
228.04	2574.00
228.51	2581.00
228.98	2578.00
229.45	2578.00
229.92	2578.00
230.39	2577.00
230.86	2587.00
231.33	2585.00
231.80	2583.00
232.27	2579.00
232.75	2588.00
233.22	2583.00
233.69	2588.00
234.16	2583.00
234.63	2584.00
235.10	2586.00
235.57	2578.00
236.04	2583.00
236.51	2584.00
236.98	2581.00
237.45	2578.00
237.92	2577.00
238.39	2586.00
238.86	2582.00
239.33	2632.00
239.80	2576.00
240.27	2584.00
240.74	2579.00
241.21	2583.00
241.68	2579.00
242.15	2583.00
242.62	2583.00
243.09	2589.00
243.56	2580.00
244.03	2588.00
244.50	2587.00
244.97	2577.00
245.44	2599.00
245.91	2587.00
246.38	2576.00
246.85	2586.00
247.32	2583.00
247.79	2583.00
248.26	2582.00
248.73	2586.00
249.20	2582.00
249.67	2584.00
250.14	2587.00
250.61	2584.00
251.08	2579.00
251.55	2578.00
252.02	2581.00
252.49	2584.00
252.96	2573.00
253.43	2581.00
253.90	2586.00
254.37	2588.00
254.84	2587.00
255.31	2581.00
255.77	2581.00
256.24	2584.00
256.71	2591.00
257.18	2580.00
257.65	2587.00
258.12	2579.00
258.59	2581.00
259.06	2585.00
259.53	2578.00
260.00	2584.00
260.47	2589.00
260.94	2583.00
261.41	2581.00
261.88	2579.00
262.35	2579.00
262.81	2588.00
263.28	2578.00
263.75	2588.00
264.22	2593.00
264.69	2586.00
265.16	2580.00
265.63	2576.00
266.10	2579.00
266.57	2585.00
267.04	2583.00
267.51	2579.00
267.97	2581.00
268.44	2581.00
268.91	2580.00
269.38	2582.00
269.85	2581.00
270.32	2586.00
270.79	2577.00
271.26	2588.00
271.73	2577.00
272.19	2588.00
272.66	2582.00
273.13	2583.00
273.60	2578.00
274.07	2580.00
274.54	2585.00
275.01	2579.00
275.48	2582.00
275.94	2584.00
276.41	2582.00
276.88	2582.00
277.35	2582.00
277.82	2585.00
278.29	2575.00
278.76	2590.00
279.22	2583.00
279.69	2585.00
280.16	2585.00
280.63	2580.00
281.10	2585.00
281.57	2582.00
282.04	2583.00
282.50	2590.00
282.97	2582.00
283.44	2580.00
283.91	2588.00
284.38	2579.00
284.85	2583.00
285.31	2582.00
285.78	2589.00
286.25	2576.00
286.72	2584.00
287.19	2580.00
287.65	2582.00
288.12	2583.00
288.59	2584.00
289.06	2583.00
289.53	2578.00
289.99	2586.00
290.46	2574.00
290.93	2584.00
291.40	2579.00
291.87	2588.00
292.33	2578.00
292.80	2583.00
293.27	2586.00
293.74	2583.00
294.21	2584.00
294.67	2575.00
295.14	2582.00
295.61	2582.00
296.08	2584.00
296.54	2586.00
297.01	2573.00
297.48	2584.00
297.95	2584.00
298.42	2582.00
298.88	2581.00
299.35	2588.00
299.82	2582.00
300.29	2582.00
300.75	2577.00
301.22	2587.00
301.69	2579.00
302.16	2579.00
302.62	2588.00
303.09	2586.00
303.56	2581.00
304.03	2588.00
304.49	2584.00
304.96	2590.00
305.43	2582.00
305.90	2590.00
306.36	2591.00
306.83	2595.00
307.30	2587.00
307.76	2594.00
308.23	2599.00
308.70	2592.00
309.17	2594.00
309.63	2602.00
310.10	2593.00
310.57	2606.00
311.03	2612.00
311.50	2606.00
311.97	2613.00
312.44	2615.00
312.90	2630.00
313.37	2622.00
313.84	2625.00
314.30	2620.00
314.77	2633.00
315.24	2630.00
315.70	2625.00
316.17	2638.00
316.64	2652.00
317.10	2669.00
317.57	2643.00
318.04	2656.00
318.50	2642.00
318.97	2650.00
319.44	2672.00
319.90	2660.00
320.37	2664.00
320.84	2681.00
321.30	2676.00
321.77	2671.00
322.24	2676.00
322.70	2678.00
323.17	2667.00
323.64	2682.00
324.10	2707.00
324.57	2701.00
325.04	2720.00
325.50	2707.00
325.97	2739.00
326.44	2754.00
326.90	2754.00
327.37	2756.00
327.84	2743.00
328.30	2742.00
328.77	2747.00
329.23	2773.00
329.70	2793.00
330.17	2783.00
330.63	2769.00
331.10	2766.00
331.56	2770.00
332.03	2754.00
332.50	2777.00
332.96	2794.00
333.43	2774.00
333.90	2768.00
334.36	2753.00
334.83	2785.00
335.29	2782.00
335.76	2779.00
336.22	2768.00
336.69	2744.00
337.16	2756.00
337.62	2760.00
338.09	2768.00
338.55	2787.00
339.02	2788.00
339.49	2814.00
339.95	2813.00
340.42	2827.00
340.88	2819.00
341.35	2805.00
341.81	2819.00
342.28	2822.00
342.75	2820.00
343.21	2814.00
343.68	2835.00
344.14	2807.00
344.61	2791.00
345.07	2811.00
345.54	2846.00
346.00	2836.00
346.47	2834.00
346.93	2839.00
347.40	2849.00
347.87	2820.00
348.33	2837.00
348.80	2852.00
349.26	2847.00
349.73	2842.00
350.19	2872.00
350.66	2895.00
351.12	2891.00
351.59	2870.00
352.05	2869.00
352.52	2874.00
352.98	2868.00
353.45	2895.00
353.91	2894.00
354.38	2908.00
354.84	2912.00
355.31	2929.00
355.77	2889.00
356.24	2870.00
356.70	2865.00
357.17	2850.00
357.63	2849.00
358.10	2837.00
358.56	2832.00
359.03	2818.00
359.49	2899.00
359.96	2930.00
360.42	2918.00
360.89	2891.00
361.35	2866.00
361.82	2877.00
362.28	2894.00
362.75	2910.00
363.21	2934.00
363.67	2913.00
364.14	2933.00
364.60	2930.00
365.07	2930.00
365.53	2978.00
366.00	3005.00
366.46	3017.00
366.93	2994.00
367.39	3002.00
367.86	2977.00
368.32	2974.00
368.78	2985.00
369.25	2991.00
369.71	2997.00
370.18	3010.00
370.64	3000.00
371.11	2984.00
371.57	3006.00
372.03	2989.00
372.50	2949.00
372.96	2951.00
373.43	2931.00
373.89	2929.00
374.35	2938.00
374.82	2969.00
375.28	2958.00
375.75	3009.00
376.21	3011.00
376.67	3012.00
377.14	3052.00
377.60	3074.00
378.07	3102.00
378.53	3111.00
378.99	3091.00
379.46	3035.00
379.92	3023.00
380.39	3042.00
380.85	3049.00
381.31	3042.00
381.78	3010.00
382.24	2978.00
382.70	2916.00
383.17	2927.00
383.63	2925.00
384.09	2932.00
384.56	2987.00
385.02	3055.00
385.48	3035.00
385.95	3026.00
386.41	3035.00
386.88	3078.00
387.34	3046.00
387.80	3072.00
388.27	3082.00
388.73	3071.00
389.19	3083.00
389.66	3178.00
390.12	3170.00
390.58	3214.00
391.05	3177.00
391.51	3184.00
391.97	3144.00
392.43	3101.00
392.90	3034.00
393.36	2967.00
393.82	2980.00
394.29	3051.00
394.75	3130.00
395.21	3179.00
395.68	3199.00
396.14	3174.00
396.60	3077.00
397.07	3074.00
397.53	3141.00
397.99	3278.00
398.45	3357.00
398.92	3437.00
399.38	3479.00
399.84	3482.00
400.31	3508.00
400.77	3517.00
401.23	3545.00
401.69	3552.00
402.16	3553.00
402.62	3599.00
403.08	3582.00
403.54	3559.00
404.01	3551.00
404.47	3545.00
404.93	3580.00
405.39	3571.00
405.86	3567.00
406.32	3560.00
406.78	3573.00
407.24	3534.00
407.71	3597.00
408.17	3597.00
408.63	3629.00
409.09	3646.00
409.56	3653.00
410.02	3612.00
410.48	3586.00
410.94	3603.00
411.40	3687.00
411.87	3725.00
412.33	3739.00
412.79	3736.00
413.25	3703.00
413.71	3765.00
414.18	3735.00
414.64	3754.00
415.10	3729.00
415.56	3758.00
416.02	3761.00
416.49	3766.00
416.95	3799.00
417.41	3723.00
417.87	3703.00
418.33	3751.00
418.80	3723.00
419.26	3731.00
419.72	3752.00
420.18	3728.00
420.64	3743.00
421.10	3783.00
421.57	3790.00
422.03	3808.00
422.49	3778.00
422.95	3738.00
423.41	3712.00
423.87	3791.00
424.34	3807.00
424.80	3822.00
425.26	3764.00
425.72	3769.00
426.18	3791.00
426.64	3771.00
427.10	3805.00
427.57	3744.00
428.03	3752.00
428.49	3755.00
428.95	3689.00
429.41	3666.00
429.87	3659.00
430.33	3567.00
430.79	3618.00
431.26	3628.00
431.72	3748.00
432.18	3876.00
432.64	3898.00
433.10	3876.00
433.56	3866.00
434.02	3844.00
434.48	3887.00
434.94	3979.00
435.40	4013.00
435.87	4031.00
436.33	4014.00
436.79	4057.00
437.25	4016.00
437.71	4002.00
438.17	3991.00
438.63	3955.00
439.09	3924.00
439.55	4022.00
440.01	4020.00
440.47	4113.00
440.93	4084.00
441.39	4124.00
441.85	4203.00
442.32	4149.00
442.78	4200.00
443.24	4197.00
443.70	4192.00
444.16	4220.00
444.62	4217.00
445.08	4280.00
445.54	4166.00
446.00	4208.00
446.46	4225.00
446.92	4250.00
447.38	4288.00
447.84	4355.00
448.30	4333.00
448.76	4337.00
449.22	4384.00
449.68	4434.00
450.14	4419.00
450.60	4480.00
451.06	4443.00
451.52	4395.00
451.98	4428.00
452.44	4405.00
452.90	4423.00
453.36	4354.00
453.82	4367.00
454.28	4435.00
454.74	4462.00
455.20	4449.00
455.66	4475.00
456.12	4465.00
456.58	4515.00
457.04	4454.00
457.50	4454.00
457.96	4474.00
458.42	4467.00
458.88	4526.00
459.34	4467.00
459.80	4527.00
460.26	4533.00
460.72	4554.00
461.18	4530.00
461.64	4567.00
462.10	4605.00
462.55	4526.00
463.01	4578.00
463.47	4589.00
463.93	4572.00
464.39	4551.00
464.85	4571.00
465.31	4521.00
465.77	4570.00
466.23	4560.00
466.69	4607.00
467.15	4519.00
467.61	4566.00
468.07	4587.00
468.52	4632.00
468.98	4552.00
469.44	4563.00
469.90	4514.00
470.36	4581.00
470.82	4579.00
471.28	4556.00
471.74	4599.00
472.20	4644.00
472.66	4632.00
473.11	4620.00
473.57	4666.00
474.03	4672.00
474.49	4689.00
474.95	4719.00
475.41	4699.00
475.87	4654.00
476.33	4645.00
476.78	4681.00
477.24	4668.00
477.70	4757.00
478.16	4751.00
478.62	4729.00
479.08	4750.00
479.54	4789.00
479.99	4805.00
480.45	4778.00
480.91	4802.00
481.37	4767.00
481.83	4838.00
482.29	4852.00
482.74	4822.00
483.20	4794.00
483.66	4760.00
484.12	4732.00
484.58	4734.00
485.04	4585.00
485.49	4534.00
485.95	4537.00
486.41	4457.00
486.87	4525.00
487.33	4599.00
487.78	4710.00
488.24	4702.00
488.70	4766.00
489.16	4785.00
489.62	4734.00
490.07	4769.00
490.53	4803.00
490.99	4814.00
491.45	4715.00
491.90	4708.00
492.36	4747.00
492.82	4795.00
493.28	4820.00
493.74	4849.00
494.19	4824.00
494.65	4839.00
495.11	4866.00
495.57	4886.00
496.02	4858.00
496.48	4848.00
496.94	4895.00
497.40	4884.00
497.85	4852.00
498.31	4836.00
498.77	4755.00
499.23	4795.00
499.68	4803.00
500.14	4820.00
500.60	4770.00
501.06	4741.00
501.51	4822.00
501.97	4813.00
502.43	4827.00
502.88	4781.00
503.34	4781.00
503.80	4838.00
504.26	4800.00
504.71	4799.00
505.17	4895.00
505.63	4932.00
506.08	4902.00
506.54	4914.00
507.00	4882.00
507.45	4796.00
507.91	4845.00
508.37	4896.00
508.82	4921.00
509.28	4920.00
509.74	4898.00
510.19	4987.00
510.65	4914.00
511.11	4980.00
511.56	4908.00
512.02	4954.00
512.48	4914.00
512.93	4877.00
513.39	4867.00
513.85	4859.00
514.30	4884.00
514.76	4863.00
515.22	4912.00
515.67	4866.00
516.13	4747.00
516.59	4724.00
517.04	4724.00
517.50	4624.00
517.95	4619.00
518.41	4768.00
518.87	4821.00
519.32	4841.00
519.78	4922.00
520.24	4920.00
520.69	4973.00
521.15	4970.00
521.60	4910.00
522.06	5005.00
522.52	4952.00
522.97	4953.00
523.43	4963.00
523.88	5038.00
524.34	5038.00
524.80	5063.00
525.25	5057.00
525.71	4996.00
526.16	4895.00
526.62	4956.00
527.07	4885.00
527.53	4897.00
527.99	4995.00
528.44	5054.00
528.90	5105.00
529.35	5080.00
529.81	5083.00
530.26	5074.00
530.72	5078.00
531.17	5138.00
531.63	5137.00
532.09	5051.00
532.54	5054.00
533.00	5053.00
533.45	5008.00
533.91	5053.00
534.36	5091.00
534.82	5130.00
535.27	5145.00
535.73	5213.00
536.18	5133.00
536.64	5183.00
537.09	5148.00
537.55	5145.00
538.00	5079.00
538.46	5155.00
538.91	5098.00
539.37	5007.00
539.82	5042.00
540.28	5029.00
540.73	5002.00
541.19	5014.00
541.64	5065.00
542.10	5118.00
542.55	5096.00
543.01	5107.00
543.46	5160.00
543.92	5127.00
544.37	5146.00
544.83	5169.00
545.28	5136.00
545.74	5168.00
546.19	5116.00
546.64	5138.00
547.10	5189.00
547.55	5164.00
548.01	5126.00
548.46	5134.00
548.92	5106.00
549.37	5183.00
549.83	5187.00
550.28	5237.00
550.73	5161.00
551.19	5218.00
551.64	5191.00
552.10	5219.00
552.55	5220.00
553.00	5167.00
553.46	5200.00
553.91	5226.00
554.37	5165.00
554.82	5243.00
555.28	5223.00
555.73	5247.00
556.18	5178.00
556.64	5172.00
557.09	5152.00
557.54	5154.00
558.00	5115.00
558.45	5170.00
558.91	5128.00
559.36	5013.00
559.81	5186.00
560.27	5152.00
560.72	5159.00
561.17	5197.00
561.63	5168.00
562.08	5204.00
562.54	5207.00
562.99	5242.00
563.44	5165.00
563.90	5245.00
564.35	5163.00
564.80	5169.00
565.26	5185.00
565.71	5168.00
566.16	5101.00
566.62	5113.00
567.07	5099.00
567.52	5134.00
567.98	5207.00
568.43	5111.00
568.88	5114.00
569.34	5163.00
569.79	5145.00
570.24	5112.00
570.69	5110.00
571.15	5130.00
571.60	5088.00
572.05	5133.00
572.51	5182.00
572.96	5229.00
573.41	5224.00
573.86	5196.00
574.32	5165.00
574.77	5136.00
575.22	5149.00
575.68	5153.00
576.13	5115.00
576.58	5175.00
577.03	5178.00
577.49	5190.00
577.94	5163.00
578.39	5101.00
578.84	5162.00
579.30	5148.00
579.75	5183.00
580.20	5206.00
580.65	5235.00
581.11	5206.00
581.56	5250.00
582.01	5232.00
582.46	5302.00
582.92	5293.00
583.37	5317.00
583.82	5270.00
584.27	5255.00
584.72	5311.00
585.18	5221.00
585.63	5190.00
586.08	5203.00
586.53	5255.00
586.98	5242.00
587.44	5263.00
587.89	5218.00
588.34	5106.00
588.79	5071.00
589.24	4944.00
589.70	4951.00
590.15	5000.00
590.60	5082.00
591.05	5091.00
591.50	5206.00
591.96	5159.00
592.41	5187.00
592.86	5138.00
593.31	5162.00
593.76	5187.00
594.21	5175.00
594.66	5141.00
595.12	5178.00
595.57	5191.00
596.02	5207.00
596.47	5123.00
596.92	5191.00
597.37	5150.00
597.82	5170.00
598.28	5197.00
598.73	5199.00
599.18	5201.00
599.63	5251.00
600.08	5193.00
600.53	5169.00
600.98	5192.00
601.43	5136.00
601.88	5161.00
602.34	5166.00
602.79	5210.00
603.24	5224.00
603.69	5297.00
604.14	5287.00
604.59	5307.00
605.04	5234.00
605.49	5297.00
605.94	5303.00
606.39	5277.00
606.84	5277.00
607.30	5262.00
607.75	5262.00
608.20	5264.00
608.65	5248.00
609.10	5216.00
609.55	5274.00
610.00	5241.00
610.45	5241.00
610.90	5287.00
611.35	5254.00
611.80	5249.00
612.25	5218.00
612.70	5268.00
613.15	5222.00
613.60	5230.00
614.05	5261.00
614.50	5285.00
614.95	5242.00
615.40	5240.00
615.85	5175.00
616.30	5142.00
616.75	5170.00
617.20	5169.00
617.65	5202.00
618.10	5265.00
618.55	5245.00
619.00	5260.00
619.45	5242.00
619.90	5260.00
620.35	5335.00
620.80	5303.00
621.25	5283.00
621.70	5233.00
622.15	5245.00
622.60	5222.00
623.05	5201.00
623.50	5174.00
623.95	5214.00
624.40	5164.00
624.85	5149.00
625.30	5193.00
625.75	5192.00
626.20	5179.00
626.65	5190.00
627.10	5203.00
627.55	5191.00
627.99	5132.00
628.44	5111.00
628.89	5155.00
629.34	5166.00
629.79	5137.00
630.24	5126.00
630.69	5187.00
631.14	5209.00
631.59	5153.00
632.04	5251.00
632.49	5239.00
632.94	5194.00
633.38	5252.00
633.83	5241.00
634.28	5239.00
634.73	5181.00
635.18	5290.00
635.63	5312.00
636.08	5251.00
636.53	5282.00
636.97	5281.00
637.42	5333.00
637.87	5278.00
638.32	5284.00
638.77	5290.00
639.22	5340.00
639.67	5308.00
640.11	5252.00
640.56	5281.00
641.01	5281.00
641.46	5296.00
641.91	5307.00
642.36	5351.00
642.81	5339.00
643.25	5303.00
643.70	5322.00
644.15	5330.00
644.60	5330.00
645.05	5283.00
645.49	5304.00
645.94	5288.00
646.39	5283.00
646.84	5294.00
647.29	5207.00
647.73	5184.00
648.18	5139.00
648.63	5183.00
649.08	5186.00
649.53	5157.00
649.97	5181.00
650.42	5209.00
650.87	5274.00
651.32	5244.00
651.77	5171.00
652.21	5213.00
652.66	5237.00
653.11	5281.00
653.56	5289.00
654.00	5268.00
654.45	5191.00
654.90	5184.00
655.35	5110.00
655.79	4980.00
656.24	4873.00
656.69	4846.00
657.14	4986.00
657.58	5129.00
658.03	5159.00
658.48	5251.00
658.92	5253.00
659.37	5179.00
659.82	5274.00
660.27	5250.00
660.71	5296.00
661.16	5325.00
661.61	5362.00
662.05	5294.00
662.50	5298.00
662.95	5263.00
663.39	5255.00
663.84	5280.00
664.29	5303.00
664.74	5285.00
665.18	5298.00
665.63	5303.00
666.08	5270.00
666.52	5259.00
666.97	5267.00
667.42	5201.00
667.86	5301.00
668.31	5303.00
668.76	5342.00
669.20	5315.00
669.65	5317.00
670.09	5268.00
670.54	5286.00
670.99	5277.00
671.43	5312.00
671.88	5232.00
672.33	5223.00
672.77	5251.00
673.22	5325.00
673.66	5293.00
674.11	5269.00
674.56	5243.00
675.00	5289.00
675.45	5282.00
675.90	5279.00
676.34	5278.00
676.79	5273.00
677.23	5320.00
677.68	5292.00
678.12	5286.00
678.57	5206.00
679.02	5283.00
679.46	5313.00
679.91	5271.00
680.35	5264.00
680.80	5216.00
681.25	5196.00
681.69	5180.00
682.14	5185.00
682.58	5257.00
683.03	5176.00
683.47	5238.00
683.92	5197.00
684.36	5174.00
684.81	5205.00
685.25	5139.00
685.70	5204.00
686.15	5092.00
686.59	4918.00
687.04	4608.00
687.48	4380.00
687.93	4499.00
688.37	4707.00
688.82	4742.00
689.26	4644.00
689.71	4771.00
690.15	4719.00
690.60	4839.00
691.04	4846.00
691.49	4872.00
691.93	4983.00
692.38	4910.00
692.82	4935.00
693.27	4958.00
693.71	4982.00
694.16	4907.00
694.60	4872.00
695.04	4892.00
695.49	4938.00
695.93	4929.00
696.38	5048.00
696.82	5066.00
697.27	5026.00
697.71	5011.00
698.16	5078.00
698.60	5031.00
699.04	5019.00
699.49	4974.00
699.93	4938.00
700.38	4936.00
700.82	4941.00
701.27	4917.00
701.71	4970.00
702.15	4933.00
702.60	4897.00
703.04	4978.00
703.49	4998.00
703.93	4987.00
704.37	5047.00
704.82	5062.00
705.26	4975.00
705.71	5019.00
706.15	5056.00
706.59	5083.00
707.04	5026.00
707.48	5049.00
707.93	5087.00
708.37	5054.00
708.81	5038.00
709.26	4999.00
709.70	5003.00
710.14	5026.00
710.59	5019.00
711.03	5030.00
711.47	5008.00
711.92	5048.00
712.36	4993.00
712.80	5038.00
713.25	5036.00
713.69	5000.00
714.13	4954.00
714.58	4924.00
715.02	4911.00
715.46	4882.00
715.91	4889.00
716.35	4842.00
716.79	4694.00
717.24	4513.00
717.68	4452.00
718.12	4411.00
718.57	4289.00
719.01	4308.00
719.45	4266.00
719.89	4301.00
720.34	4298.00
720.78	4353.00
721.22	4491.00
721.66	4635.00
722.11	4724.00
722.55	4687.00
722.99	4660.00
723.44	4467.00
723.88	4469.00
724.32	4429.00
724.76	4417.00
725.21	4391.00
725.65	4410.00
726.09	4442.00
726.53	4413.00
726.97	4515.00
727.42	4426.00
727.86	4423.00
728.30	4455.00
728.74	4515.00
729.19	4411.00
729.63	4454.00
730.07	4474.00
730.51	4490.00
730.95	4553.00
731.40	4493.00
731.84	4553.00
732.28	4669.00
732.72	4671.00
733.16	4730.00
733.61	4719.00
734.05	4772.00
734.49	4743.00
734.93	4720.00
735.37	4758.00
735.81	4689.00
736.26	4701.00
736.70	4747.00
737.14	4758.00
737.58	4729.00
738.02	4736.00
738.46	4702.00
738.90	4715.00
739.35	4783.00
739.79	4731.00
740.23	4752.00
740.67	4770.00
741.11	4750.00
741.55	4731.00
741.99	4754.00
742.44	4701.00
742.88	4775.00
743.32	4789.00
743.76	4792.00
744.20	4756.00
744.64	4799.00
745.08	4762.00
745.52	4842.00
745.96	4848.00
746.40	4734.00
746.84	4830.00
747.29	4845.00
747.73	4766.00
748.17	4770.00
748.61	4837.00
749.05	4783.00
749.49	4724.00
749.93	4771.00
750.37	4747.00
750.81	4813.00
751.25	4775.00
751.69	4779.00
752.13	4794.00
752.57	4796.00
753.01	4818.00
753.45	4788.00
753.89	4788.00
754.33	4817.00
754.77	4845.00
755.21	4800.00
755.65	4813.00
756.09	4802.00
756.53	4780.00
756.97	4773.00
757.41	4755.00
757.85	4773.00
758.29	4689.00
758.73	4706.00
759.17	4455.00
759.61	3942.00
760.05	3350.00
760.49	3005.00
760.93	2929.00
761.37	3104.00
761.81	3509.00
762.25	3636.00
762.69	3489.00
763.13	3369.00
763.57	3388.00
764.01	3451.00
764.45	3582.00
764.89	3672.00
765.33	3865.00
765.77	3998.00
766.21	4117.00
766.65	4229.00
767.09	4370.00
767.53	4510.00
767.96	4524.00
768.40	4620.00
768.84	4638.00
769.28	4611.00
769.72	4615.00
770.16	4657.00
770.60	4718.00
771.04	4698.00
771.48	4677.00
771.92	4676.00
772.35	4694.00
772.79	4664.00
773.23	4710.00
773.67	4682.00
774.11	4710.00
774.55	4681.00
774.99	4642.00
775.43	4666.00
775.86	4683.00
776.30	4679.00
776.74	4711.00
777.18	4645.00
777.62	4662.00
778.06	4704.00
778.50	4675.00
778.93	4643.00
779.37	4637.00
779.81	4657.00
780.25	4631.00
780.69	4606.00
781.12	4617.00
781.56	4633.00
782.00	4621.00
782.44	4658.00
782.88	4623.00
783.32	4595.00
783.75	4600.00
784.19	4622.00
784.63	4588.00
785.07	4565.00
785.50	4563.00
785.94	4545.00
786.38	4550.00
786.82	4553.00
787.26	4519.00
787.69	4557.00
788.13	4523.00
