SpectraSuite Data File
++++++++++++++++++++++++++++++++++++
Date: Thu Aug 05 09:52:32 EEST 2021
User: CanSEE
Dark Spectrum Present: No
Reference Spectrum Present: No
Number of Sampled Component Spectra: 1
Spectrometers: MAYP112785
Integration Time (usec): 10000 (MAYP112785)
Spectra Averaged: 1 (MAYP112785)
Boxcar Smoothing: 0 (MAYP112785)
Correct for Electrical Dark: No (MAYP112785)
Strobe/Lamp Enabled: No (MAYP112785)
Correct for Detector Non-linearity: No (MAYP112785)
Correct for Stray Light: No (MAYP112785)
Number of Pixels in Processed Spectrum: 2068
>>>>>Begin Processed Spectral Data<<<<<
198.35	3433.00
198.82	2471.00
199.30	2575.00
199.77	2556.00
200.24	2579.00
200.71	2580.00
201.18	2578.00
201.65	2587.00
202.13	2584.00
202.60	2586.00
203.07	2582.00
203.54	2585.00
204.01	2580.00
204.48	2575.00
204.96	2585.00
205.43	2588.00
205.90	2579.00
206.37	2581.00
206.84	2573.00
207.31	2582.00
207.78	2582.00
208.26	2576.00
208.73	2587.00
209.20	2585.00
209.67	2582.00
210.14	2584.00
210.61	2592.00
211.08	2578.00
211.56	2582.00
212.03	2579.00
212.50	2579.00
212.97	2579.00
213.44	2583.00
213.91	2580.00
214.38	2576.00
214.85	2580.00
215.33	2582.00
215.80	2581.00
216.27	2579.00
216.74	2584.00
217.21	2582.00
217.68	2586.00
218.15	2577.00
218.62	2583.00
219.09	2586.00
219.57	2588.00
220.04	2591.00
220.51	2585.00
220.98	2583.00
221.45	2583.00
221.92	2573.00
222.39	2582.00
222.86	2579.00
223.33	2582.00
223.80	2581.00
224.27	2585.00
224.74	2582.00
225.22	2583.00
225.69	2582.00
226.16	2580.00
226.63	2579.00
227.10	2585.00
227.57	2577.00
228.04	2576.00
228.51	2575.00
228.98	2586.00
229.45	2581.00
229.92	2580.00
230.39	2576.00
230.86	2585.00
231.33	2583.00
231.80	2576.00
232.27	2584.00
232.75	2586.00
233.22	2581.00
233.69	2589.00
234.16	2582.00
234.63	2592.00
235.10	2577.00
235.57	2582.00
236.04	2577.00
236.51	2575.00
236.98	2585.00
237.45	2577.00
237.92	2585.00
238.39	2574.00
238.86	2581.00
239.33	2622.00
239.80	2587.00
240.27	2580.00
240.74	2580.00
241.21	2581.00
241.68	2583.00
242.15	2579.00
242.62	2576.00
243.09	2586.00
243.56	2575.00
244.03	2581.00
244.50	2585.00
244.97	2579.00
245.44	2593.00
245.91	2589.00
246.38	2583.00
246.85	2586.00
247.32	2584.00
247.79	2588.00
248.26	2586.00
248.73	2579.00
249.20	2581.00
249.67	2577.00
250.14	2579.00
250.61	2588.00
251.08	2577.00
251.55	2580.00
252.02	2577.00
252.49	2576.00
252.96	2575.00
253.43	2583.00
253.90	2582.00
254.37	2583.00
254.84	2589.00
255.31	2584.00
255.77	2578.00
256.24	2580.00
256.71	2585.00
257.18	2583.00
257.65	2581.00
258.12	2585.00
258.59	2589.00
259.06	2589.00
259.53	2583.00
260.00	2581.00
260.47	2590.00
260.94	2582.00
261.41	2583.00
261.88	2578.00
262.35	2590.00
262.81	2582.00
263.28	2582.00
263.75	2583.00
264.22	2576.00
264.69	2582.00
265.16	2584.00
265.63	2581.00
266.10	2583.00
266.57	2582.00
267.04	2582.00
267.51	2583.00
267.97	2584.00
268.44	2581.00
268.91	2579.00
269.38	2589.00
269.85	2577.00
270.32	2586.00
270.79	2585.00
271.26	2578.00
271.73	2583.00
272.19	2580.00
272.66	2582.00
273.13	2583.00
273.60	2582.00
274.07	2578.00
274.54	2586.00
275.01	2583.00
275.48	2580.00
275.94	2583.00
276.41	2583.00
276.88	2586.00
277.35	2582.00
277.82	2581.00
278.29	2579.00
278.76	2587.00
279.22	2584.00
279.69	2591.00
280.16	2586.00
280.63	2585.00
281.10	2581.00
281.57	2576.00
282.04	2582.00
282.50	2590.00
282.97	2584.00
283.44	2581.00
283.91	2587.00
284.38	2578.00
284.85	2585.00
285.31	2582.00
285.78	2577.00
286.25	2582.00
286.72	2576.00
287.19	2578.00
287.65	2584.00
288.12	2583.00
288.59	2584.00
289.06	2584.00
289.53	2583.00
289.99	2577.00
290.46	2578.00
290.93	2578.00
291.40	2572.00
291.87	2586.00
292.33	2582.00
292.80	2578.00
293.27	2583.00
293.74	2580.00
294.21	2574.00
294.67	2583.00
295.14	2577.00
295.61	2581.00
296.08	2582.00
296.54	2586.00
297.01	2584.00
297.48	2582.00
297.95	2585.00
298.42	2583.00
298.88	2579.00
299.35	2583.00
299.82	2579.00
300.29	2571.00
300.75	2577.00
301.22	2579.00
301.69	2582.00
302.16	2581.00
302.62	2581.00
303.09	2580.00
303.56	2580.00
304.03	2585.00
304.49	2583.00
304.96	2587.00
305.43	2589.00
305.90	2584.00
306.36	2591.00
306.83	2590.00
307.30	2585.00
307.76	2588.00
308.23	2594.00
308.70	2590.00
309.17	2596.00
309.63	2589.00
310.10	2599.00
310.57	2608.00
311.03	2604.00
311.50	2618.00
311.97	2613.00
312.44	2605.00
312.90	2613.00
313.37	2625.00
313.84	2621.00
314.30	2623.00
314.77	2630.00
315.24	2629.00
315.70	2636.00
316.17	2634.00
316.64	2639.00
317.10	2647.00
317.57	2662.00
318.04	2657.00
318.50	2657.00
318.97	2655.00
319.44	2653.00
319.90	2661.00
320.37	2665.00
320.84	2689.00
321.30	2677.00
321.77	2681.00
322.24	2693.00
322.70	2685.00
323.17	2682.00
323.64	2682.00
324.10	2702.00
324.57	2702.00
325.04	2692.00
325.50	2725.00
325.97	2727.00
326.44	2748.00
326.90	2752.00
327.37	2749.00
327.84	2761.00
328.30	2721.00
328.77	2740.00
329.23	2778.00
329.70	2782.00
330.17	2789.00
330.63	2775.00
331.10	2760.00
331.56	2763.00
332.03	2764.00
332.50	2770.00
332.96	2782.00
333.43	2776.00
333.90	2767.00
334.36	2761.00
334.83	2778.00
335.29	2783.00
335.76	2782.00
336.22	2786.00
336.69	2759.00
337.16	2758.00
337.62	2766.00
338.09	2780.00
338.55	2806.00
339.02	2800.00
339.49	2787.00
339.95	2823.00
340.42	2814.00
340.88	2811.00
341.35	2807.00
341.81	2801.00
342.28	2823.00
342.75	2806.00
343.21	2822.00
343.68	2819.00
344.14	2805.00
344.61	2780.00
345.07	2807.00
345.54	2823.00
346.00	2827.00
346.47	2832.00
346.93	2848.00
347.40	2846.00
347.87	2851.00
348.33	2838.00
348.80	2847.00
349.26	2867.00
349.73	2844.00
350.19	2858.00
350.66	2885.00
351.12	2883.00
351.59	2865.00
352.05	2867.00
352.52	2866.00
352.98	2861.00
353.45	2890.00
353.91	2926.00
354.38	2904.00
354.84	2938.00
355.31	2905.00
355.77	2895.00
356.24	2894.00
356.70	2871.00
357.17	2842.00
357.63	2833.00
358.10	2846.00
358.56	2831.00
359.03	2849.00
359.49	2878.00
359.96	2901.00
360.42	2894.00
360.89	2920.00
361.35	2880.00
361.82	2898.00
362.28	2894.00
362.75	2923.00
363.21	2920.00
363.67	2908.00
364.14	2950.00
364.60	2937.00
365.07	2965.00
365.53	2977.00
366.00	2999.00
366.46	2998.00
366.93	3013.00
367.39	3014.00
367.86	2993.00
368.32	2983.00
368.78	2969.00
369.25	2993.00
369.71	2988.00
370.18	3019.00
370.64	3016.00
371.11	2967.00
371.57	3006.00
372.03	2984.00
372.50	2948.00
372.96	2963.00
373.43	2934.00
373.89	2910.00
374.35	2945.00
374.82	2941.00
375.28	2941.00
375.75	3005.00
376.21	3022.00
376.67	3022.00
377.14	3027.00
377.60	3071.00
378.07	3107.00
378.53	3128.00
378.99	3087.00
379.46	3073.00
379.92	3047.00
380.39	3033.00
380.85	3063.00
381.31	3053.00
381.78	2985.00
382.24	2956.00
382.70	2932.00
383.17	2933.00
383.63	2915.00
384.09	2930.00
384.56	2984.00
385.02	3055.00
385.48	3063.00
385.95	3033.00
386.41	2991.00
386.88	3060.00
387.34	3041.00
387.80	3036.00
388.27	3054.00
388.73	3068.00
389.19	3120.00
389.66	3154.00
390.12	3157.00
390.58	3179.00
391.05	3171.00
391.51	3188.00
391.97	3174.00
392.43	3110.00
392.90	3026.00
393.36	2975.00
393.82	2988.00
394.29	3058.00
394.75	3138.00
395.21	3184.00
395.68	3211.00
396.14	3156.00
396.60	3098.00
397.07	3062.00
397.53	3139.00
397.99	3263.00
398.45	3389.00
398.92	3434.00
399.38	3466.00
399.84	3492.00
400.31	3478.00
400.77	3517.00
401.23	3551.00
401.69	3581.00
402.16	3568.00
402.62	3590.00
403.08	3586.00
403.54	3557.00
404.01	3540.00
404.47	3578.00
404.93	3512.00
405.39	3553.00
405.86	3587.00
406.32	3528.00
406.78	3552.00
407.24	3574.00
407.71	3627.00
408.17	3600.00
408.63	3636.00
409.09	3639.00
409.56	3648.00
410.02	3625.00
410.48	3585.00
410.94	3654.00
411.40	3686.00
411.87	3715.00
412.33	3748.00
412.79	3685.00
413.25	3723.00
413.71	3737.00
414.18	3730.00
414.64	3761.00
415.10	3707.00
415.56	3735.00
416.02	3791.00
416.49	3735.00
416.95	3742.00
417.41	3749.00
417.87	3731.00
418.33	3741.00
418.80	3725.00
419.26	3774.00
419.72	3781.00
420.18	3745.00
420.64	3769.00
421.10	3809.00
421.57	3825.00
422.03	3803.00
422.49	3762.00
422.95	3782.00
423.41	3769.00
423.87	3813.00
424.34	3818.00
424.80	3818.00
425.26	3812.00
425.72	3804.00
426.18	3799.00
426.64	3810.00
427.10	3804.00
427.57	3730.00
428.03	3763.00
428.49	3716.00
428.95	3694.00
429.41	3679.00
429.87	3604.00
430.33	3633.00
430.79	3615.00
431.26	3630.00
431.72	3777.00
432.18	3914.00
432.64	3899.00
433.10	3817.00
433.56	3929.00
434.02	3900.00
434.48	3852.00
434.94	3872.00
435.40	3994.00
435.87	3988.00
436.33	4016.00
436.79	4041.00
437.25	3995.00
437.71	3955.00
438.17	3942.00
438.63	3946.00
439.09	3936.00
439.55	4019.00
440.01	4055.00
440.47	4043.00
440.93	4102.00
441.39	4114.00
441.85	4166.00
442.32	4210.00
442.78	4214.00
443.24	4195.00
443.70	4199.00
444.16	4243.00
444.62	4253.00
445.08	4208.00
445.54	4241.00
446.00	4256.00
446.46	4229.00
446.92	4245.00
447.38	4326.00
447.84	4310.00
448.30	4372.00
448.76	4348.00
449.22	4432.00
449.68	4394.00
450.14	4477.00
450.60	4457.00
451.06	4437.00
451.52	4457.00
451.98	4390.00
452.44	4395.00
452.90	4361.00
453.36	4312.00
453.82	4358.00
454.28	4372.00
454.74	4449.00
455.20	4444.00
455.66	4456.00
456.12	4440.00
456.58	4499.00
457.04	4491.00
457.50	4509.00
457.96	4494.00
458.42	4459.00
458.88	4482.00
459.34	4521.00
459.80	4481.00
460.26	4527.00
460.72	4562.00
461.18	4596.00
461.64	4577.00
462.10	4557.00
462.55	4568.00
463.01	4575.00
463.47	4539.00
463.93	4570.00
464.39	4556.00
464.85	4596.00
465.31	4498.00
465.77	4501.00
466.23	4594.00
466.69	4553.00
467.15	4549.00
467.61	4534.00
468.07	4618.00
468.52	4616.00
468.98	4568.00
469.44	4574.00
469.90	4549.00
470.36	4548.00
470.82	4545.00
471.28	4603.00
471.74	4638.00
472.20	4655.00
472.66	4635.00
473.11	4664.00
473.57	4641.00
474.03	4638.00
474.49	4660.00
474.95	4690.00
475.41	4668.00
475.87	4640.00
476.33	4675.00
476.78	4669.00
477.24	4745.00
477.70	4684.00
478.16	4723.00
478.62	4758.00
479.08	4735.00
479.54	4731.00
479.99	4769.00
480.45	4778.00
480.91	4722.00
481.37	4778.00
481.83	4777.00
482.29	4814.00
482.74	4815.00
483.20	4786.00
483.66	4753.00
484.12	4742.00
484.58	4736.00
485.04	4634.00
485.49	4541.00
485.95	4511.00
486.41	4503.00
486.87	4503.00
487.33	4590.00
487.78	4655.00
488.24	4676.00
488.70	4739.00
489.16	4712.00
489.62	4800.00
490.07	4784.00
490.53	4791.00
490.99	4781.00
491.45	4741.00
491.90	4734.00
492.36	4757.00
492.82	4799.00
493.28	4787.00
493.74	4838.00
494.19	4824.00
494.65	4852.00
495.11	4882.00
495.57	4907.00
496.02	4842.00
496.48	4851.00
496.94	4886.00
497.40	4803.00
497.85	4754.00
498.31	4840.00
498.77	4844.00
499.23	4830.00
499.68	4838.00
500.14	4776.00
500.60	4781.00
501.06	4799.00
501.51	4721.00
501.97	4730.00
502.43	4774.00
502.88	4768.00
503.34	4773.00
503.80	4866.00
504.26	4853.00
504.71	4777.00
505.17	4944.00
505.63	4866.00
506.08	4912.00
506.54	4886.00
507.00	4924.00
507.45	4828.00
507.91	4810.00
508.37	4853.00
508.82	4883.00
509.28	4905.00
509.74	4978.00
510.19	4996.00
510.65	4942.00
511.11	4961.00
511.56	4949.00
512.02	4894.00
512.48	4920.00
512.93	4889.00
513.39	4873.00
513.85	4858.00
514.30	4852.00
514.76	4822.00
515.22	4911.00
515.67	4861.00
516.13	4783.00
516.59	4723.00
517.04	4703.00
517.50	4635.00
517.95	4655.00
518.41	4769.00
518.87	4827.00
519.32	4833.00
519.78	4906.00
520.24	4843.00
520.69	4981.00
521.15	4896.00
521.60	4961.00
522.06	4942.00
522.52	4941.00
522.97	4907.00
523.43	5003.00
523.88	5049.00
524.34	5048.00
524.80	5070.00
525.25	5060.00
525.71	4941.00
526.16	4885.00
526.62	4935.00
527.07	4901.00
527.53	4864.00
527.99	5019.00
528.44	5053.00
528.90	5154.00
529.35	5107.00
529.81	5171.00
530.26	5102.00
530.72	5163.00
531.17	5149.00
531.63	5121.00
532.09	5007.00
532.54	5047.00
533.00	5096.00
533.45	5055.00
533.91	5047.00
534.36	5056.00
534.82	5095.00
535.27	5172.00
535.73	5137.00
536.18	5113.00
536.64	5053.00
537.09	5114.00
537.55	5075.00
538.00	5091.00
538.46	5155.00
538.91	5085.00
539.37	5086.00
539.82	5028.00
540.28	5053.00
540.73	5050.00
541.19	5059.00
541.64	5098.00
542.10	5091.00
542.55	5090.00
543.01	5146.00
543.46	5141.00
543.92	5181.00
544.37	5133.00
544.83	5138.00
545.28	5246.00
545.74	5171.00
546.19	5153.00
546.64	5169.00
547.10	5175.00
547.55	5084.00
548.01	5099.00
548.46	5123.00
548.92	5235.00
549.37	5224.00
549.83	5176.00
550.28	5170.00
550.73	5160.00
551.19	5149.00
551.64	5186.00
552.10	5174.00
552.55	5194.00
553.00	5192.00
553.46	5154.00
553.91	5185.00
554.37	5217.00
554.82	5281.00
555.28	5177.00
555.73	5210.00
556.18	5130.00
556.64	5131.00
557.09	5160.00
557.54	5119.00
558.00	5147.00
558.45	5143.00
558.91	5111.00
559.36	5097.00
559.81	5136.00
560.27	5111.00
560.72	5148.00
561.17	5163.00
561.63	5236.00
562.08	5131.00
562.54	5140.00
562.99	5220.00
563.44	5175.00
563.90	5196.00
564.35	5108.00
564.80	5172.00
565.26	5108.00
565.71	5141.00
566.16	5137.00
566.62	5181.00
567.07	5165.00
567.52	5179.00
567.98	5136.00
568.43	5079.00
568.88	5207.00
569.34	5098.00
569.79	5125.00
570.24	5104.00
570.69	5055.00
571.15	5083.00
571.60	5085.00
572.05	5179.00
572.51	5173.00
572.96	5212.00
573.41	5170.00
573.86	5216.00
574.32	5201.00
574.77	5191.00
575.22	5175.00
575.68	5113.00
576.13	5161.00
576.58	5186.00
577.03	5155.00
577.49	5169.00
577.94	5138.00
578.39	5172.00
578.84	5129.00
579.30	5150.00
579.75	5196.00
580.20	5230.00
580.65	5212.00
581.11	5217.00
581.56	5249.00
582.01	5293.00
582.46	5323.00
582.92	5322.00
583.37	5255.00
583.82	5284.00
584.27	5348.00
584.72	5291.00
585.18	5227.00
585.63	5211.00
586.08	5239.00
586.53	5214.00
586.98	5238.00
587.44	5224.00
587.89	5239.00
588.34	5098.00
588.79	4990.00
589.24	4955.00
589.70	4947.00
590.15	5018.00
590.60	5133.00
591.05	5171.00
591.50	5131.00
591.96	5145.00
592.41	5158.00
592.86	5173.00
593.31	5239.00
593.76	5173.00
594.21	5178.00
594.66	5113.00
595.12	5187.00
595.57	5095.00
596.02	5200.00
596.47	5135.00
596.92	5192.00
597.37	5214.00
597.82	5158.00
598.28	5179.00
598.73	5175.00
599.18	5187.00
599.63	5219.00
600.08	5154.00
600.53	5179.00
600.98	5193.00
601.43	5141.00
601.88	5244.00
602.34	5242.00
602.79	5285.00
603.24	5259.00
603.69	5296.00
604.14	5266.00
604.59	5282.00
605.04	5217.00
605.49	5270.00
605.94	5256.00
606.39	5225.00
606.84	5274.00
607.30	5217.00
607.75	5288.00
608.20	5260.00
608.65	5267.00
609.10	5243.00
609.55	5222.00
610.00	5249.00
610.45	5264.00
610.90	5245.00
611.35	5203.00
611.80	5272.00
612.25	5261.00
612.70	5271.00
613.15	5274.00
613.60	5219.00
614.05	5234.00
614.50	5226.00
614.95	5241.00
615.40	5222.00
615.85	5184.00
616.30	5132.00
616.75	5131.00
617.20	5143.00
617.65	5195.00
618.10	5302.00
618.55	5306.00
619.00	5227.00
619.45	5239.00
619.90	5264.00
620.35	5252.00
620.80	5289.00
621.25	5300.00
621.70	5250.00
622.15	5244.00
622.60	5263.00
623.05	5216.00
623.50	5178.00
623.95	5154.00
624.40	5198.00
624.85	5242.00
625.30	5197.00
625.75	5213.00
626.20	5187.00
626.65	5230.00
627.10	5215.00
627.55	5155.00
627.99	5136.00
628.44	5107.00
628.89	5156.00
629.34	5163.00
629.79	5147.00
630.24	5175.00
630.69	5205.00
631.14	5191.00
631.59	5126.00
632.04	5197.00
632.49	5236.00
632.94	5196.00
633.38	5236.00
633.83	5247.00
634.28	5207.00
634.73	5281.00
635.18	5276.00
635.63	5273.00
636.08	5239.00
636.53	5262.00
636.97	5319.00
637.42	5280.00
637.87	5291.00
638.32	5396.00
638.77	5366.00
639.22	5306.00
639.67	5314.00
640.11	5259.00
640.56	5305.00
641.01	5245.00
641.46	5332.00
641.91	5288.00
642.36	5241.00
642.81	5328.00
643.25	5319.00
643.70	5262.00
644.15	5324.00
644.60	5295.00
645.05	5289.00
645.49	5332.00
645.94	5263.00
646.39	5232.00
646.84	5232.00
647.29	5251.00
647.73	5202.00
648.18	5149.00
648.63	5237.00
649.08	5218.00
649.53	5125.00
649.97	5162.00
650.42	5212.00
650.87	5257.00
651.32	5257.00
651.77	5195.00
652.21	5215.00
652.66	5202.00
653.11	5288.00
653.56	5313.00
654.00	5270.00
654.45	5287.00
654.90	5160.00
655.35	5109.00
655.79	5007.00
656.24	4829.00
656.69	4869.00
657.14	4947.00
657.58	5080.00
658.03	5219.00
658.48	5200.00
658.92	5240.00
659.37	5265.00
659.82	5222.00
660.27	5226.00
660.71	5266.00
661.16	5253.00
661.61	5249.00
662.05	5302.00
662.50	5266.00
662.95	5346.00
663.39	5278.00
663.84	5262.00
664.29	5301.00
664.74	5323.00
665.18	5358.00
665.63	5327.00
666.08	5222.00
666.52	5309.00
666.97	5378.00
667.42	5279.00
667.86	5309.00
668.31	5311.00
668.76	5310.00
669.20	5277.00
669.65	5315.00
670.09	5275.00
670.54	5217.00
670.99	5332.00
671.43	5286.00
671.88	5303.00
672.33	5226.00
672.77	5257.00
673.22	5243.00
673.66	5304.00
674.11	5254.00
674.56	5240.00
675.00	5246.00
675.45	5267.00
675.90	5296.00
676.34	5263.00
676.79	5240.00
677.23	5185.00
677.68	5261.00
678.12	5245.00
678.57	5226.00
679.02	5253.00
679.46	5239.00
679.91	5263.00
680.35	5253.00
680.80	5267.00
681.25	5220.00
681.69	5209.00
682.14	5279.00
682.58	5238.00
683.03	5191.00
683.47	5176.00
683.92	5170.00
684.36	5198.00
684.81	5172.00
685.25	5174.00
685.70	5213.00
686.15	5065.00
686.59	4936.00
687.04	4523.00
687.48	4372.00
687.93	4526.00
688.37	4707.00
688.82	4717.00
689.26	4730.00
689.71	4660.00
690.15	4747.00
690.60	4788.00
691.04	4869.00
691.49	4935.00
691.93	4930.00
692.38	4955.00
692.82	4974.00
693.27	4926.00
693.71	4906.00
694.16	4921.00
694.60	4899.00
695.04	4921.00
695.49	4933.00
695.93	4981.00
696.38	5039.00
696.82	5046.00
697.27	5054.00
697.71	5037.00
698.16	5083.00
698.60	4979.00
699.04	5000.00
699.49	5005.00
699.93	4951.00
700.38	4940.00
700.82	4978.00
701.27	4957.00
701.71	4922.00
702.15	4895.00
702.60	4988.00
703.04	4913.00
703.49	5017.00
703.93	5008.00
704.37	5062.00
704.82	5076.00
705.26	5048.00
705.71	5064.00
706.15	4998.00
706.59	5016.00
707.04	5047.00
707.48	4978.00
707.93	5095.00
708.37	5077.00
708.81	5026.00
709.26	4984.00
709.70	5045.00
710.14	5085.00
710.59	5036.00
711.03	5027.00
711.47	4971.00
711.92	5005.00
712.36	4940.00
712.80	5005.00
713.25	5007.00
713.69	4996.00
714.13	4953.00
714.58	4996.00
715.02	4875.00
715.46	4955.00
715.91	4839.00
716.35	4812.00
716.79	4692.00
717.24	4517.00
717.68	4482.00
718.12	4406.00
718.57	4335.00
719.01	4296.00
719.45	4238.00
719.89	4282.00
720.34	4294.00
720.78	4381.00
721.22	4550.00
721.66	4631.00
722.11	4700.00
722.55	4659.00
722.99	4642.00
723.44	4483.00
723.88	4412.00
724.32	4433.00
724.76	4362.00
725.21	4405.00
725.65	4439.00
726.09	4509.00
726.53	4489.00
726.97	4494.00
727.42	4444.00
727.86	4372.00
728.30	4439.00
728.74	4501.00
729.19	4417.00
729.63	4463.00
730.07	4514.00
730.51	4530.00
730.95	4511.00
731.40	4561.00
731.84	4538.00
732.28	4659.00
732.72	4691.00
733.16	4683.00
733.61	4668.00
734.05	4771.00
734.49	4744.00
734.93	4747.00
735.37	4714.00
735.81	4736.00
736.26	4751.00
736.70	4728.00
737.14	4718.00
737.58	4767.00
738.02	4756.00
738.46	4724.00
738.90	4735.00
739.35	4676.00
739.79	4769.00
740.23	4796.00
740.67	4778.00
741.11	4669.00
741.55	4768.00
741.99	4690.00
742.44	4766.00
742.88	4727.00
743.32	4784.00
743.76	4774.00
744.20	4806.00
744.64	4815.00
745.08	4778.00
745.52	4741.00
745.96	4797.00
746.40	4799.00
746.84	4812.00
747.29	4819.00
747.73	4786.00
748.17	4809.00
748.61	4790.00
749.05	4819.00
749.49	4769.00
749.93	4835.00
750.37	4751.00
750.81	4788.00
751.25	4766.00
751.69	4822.00
752.13	4784.00
752.57	4807.00
753.01	4758.00
753.45	4803.00
753.89	4734.00
754.33	4807.00
754.77	4822.00
755.21	4757.00
755.65	4821.00
756.09	4843.00
756.53	4784.00
756.97	4806.00
757.41	4779.00
757.85	4776.00
758.29	4732.00
758.73	4684.00
759.17	4494.00
759.61	3943.00
760.05	3331.00
760.49	2982.00
760.93	2933.00
761.37	3111.00
761.81	3471.00
762.25	3658.00
762.69	3514.00
763.13	3345.00
763.57	3371.00
764.01	3451.00
764.45	3547.00
764.89	3730.00
765.33	3869.00
765.77	4005.00
766.21	4111.00
766.65	4228.00
767.09	4367.00
767.53	4454.00
767.96	4529.00
768.40	4600.00
768.84	4635.00
769.28	4577.00
769.72	4627.00
770.16	4658.00
770.60	4705.00
771.04	4650.00
771.48	4713.00
771.92	4748.00
772.35	4757.00
772.79	4670.00
773.23	4698.00
773.67	4681.00
774.11	4703.00
774.55	4639.00
774.99	4650.00
775.43	4615.00
775.86	4681.00
776.30	4713.00
776.74	4700.00
777.18	4688.00
777.62	4658.00
778.06	4655.00
778.50	4629.00
778.93	4673.00
779.37	4647.00
779.81	4616.00
780.25	4615.00
780.69	4579.00
781.12	4638.00
781.56	4639.00
782.00	4631.00
782.44	4654.00
782.88	4631.00
783.32	4622.00
783.75	4594.00
784.19	4602.00
784.63	4556.00
785.07	4547.00
785.50	4550.00
785.94	4564.00
786.38	4527.00
786.82	4574.00
787.26	4506.00
787.69	4483.00
788.13	4537.00
