SpectraSuite Data File
++++++++++++++++++++++++++++++++++++
Date: Thu Aug 05 09:52:33 EEST 2021
User: CanSEE
Dark Spectrum Present: No
Reference Spectrum Present: No
Number of Sampled Component Spectra: 1
Spectrometers: MAYP112785
Integration Time (usec): 10000 (MAYP112785)
Spectra Averaged: 1 (MAYP112785)
Boxcar Smoothing: 0 (MAYP112785)
Correct for Electrical Dark: No (MAYP112785)
Strobe/Lamp Enabled: No (MAYP112785)
Correct for Detector Non-linearity: No (MAYP112785)
Correct for Stray Light: No (MAYP112785)
Number of Pixels in Processed Spectrum: 2068
>>>>>Begin Processed Spectral Data<<<<<
198.35	3430.00
198.82	2472.00
199.30	2571.00
199.77	2561.00
200.24	2584.00
200.71	2580.00
201.18	2581.00
201.65	2587.00
202.13	2587.00
202.60	2588.00
203.07	2587.00
203.54	2581.00
204.01	2582.00
204.48	2584.00
204.96	2579.00
205.43	2581.00
205.90	2579.00
206.37	2582.00
206.84	2583.00
207.31	2578.00
207.78	2587.00
208.26	2578.00
208.73	2583.00
209.20	2586.00
209.67	2580.00
210.14	2584.00
210.61	2587.00
211.08	2588.00
211.56	2582.00
212.03	2578.00
212.50	2583.00
212.97	2583.00
213.44	2579.00
213.91	2577.00
214.38	2578.00
214.85	2586.00
215.33	2582.00
215.80	2580.00
216.27	2584.00
216.74	2583.00
217.21	2584.00
217.68	2579.00
218.15	2573.00
218.62	2584.00
219.09	2577.00
219.57	2580.00
220.04	2576.00
220.51	2580.00
220.98	2588.00
221.45	2586.00
221.92	2580.00
222.39	2573.00
222.86	2573.00
223.33	2581.00
223.80	2590.00
224.27	2586.00
224.74	2582.00
225.22	2579.00
225.69	2584.00
226.16	2588.00
226.63	2583.00
227.10	2583.00
227.57	2589.00
228.04	2575.00
228.51	2579.00
228.98	2586.00
229.45	2591.00
229.92	2581.00
230.39	2581.00
230.86	2580.00
231.33	2580.00
231.80	2586.00
232.27	2583.00
232.75	2580.00
233.22	2582.00
233.69	2577.00
234.16	2585.00
234.63	2585.00
235.10	2579.00
235.57	2583.00
236.04	2586.00
236.51	2578.00
236.98	2583.00
237.45	2584.00
237.92	2591.00
238.39	2577.00
238.86	2578.00
239.33	2627.00
239.80	2576.00
240.27	2584.00
240.74	2576.00
241.21	2588.00
241.68	2580.00
242.15	2579.00
242.62	2593.00
243.09	2585.00
243.56	2580.00
244.03	2585.00
244.50	2577.00
244.97	2584.00
245.44	2592.00
245.91	2585.00
246.38	2580.00
246.85	2580.00
247.32	2588.00
247.79	2577.00
248.26	2584.00
248.73	2578.00
249.20	2589.00
249.67	2581.00
250.14	2585.00
250.61	2584.00
251.08	2579.00
251.55	2581.00
252.02	2584.00
252.49	2583.00
252.96	2587.00
253.43	2576.00
253.90	2588.00
254.37	2589.00
254.84	2580.00
255.31	2579.00
255.77	2580.00
256.24	2579.00
256.71	2582.00
257.18	2585.00
257.65	2586.00
258.12	2588.00
258.59	2585.00
259.06	2589.00
259.53	2583.00
260.00	2583.00
260.47	2581.00
260.94	2583.00
261.41	2586.00
261.88	2576.00
262.35	2592.00
262.81	2578.00
263.28	2582.00
263.75	2584.00
264.22	2580.00
264.69	2583.00
265.16	2579.00
265.63	2589.00
266.10	2582.00
266.57	2584.00
267.04	2585.00
267.51	2587.00
267.97	2581.00
268.44	2582.00
268.91	2579.00
269.38	2582.00
269.85	2581.00
270.32	2587.00
270.79	2581.00
271.26	2582.00
271.73	2585.00
272.19	2585.00
272.66	2580.00
273.13	2583.00
273.60	2584.00
274.07	2586.00
274.54	2587.00
275.01	2586.00
275.48	2581.00
275.94	2582.00
276.41	2582.00
276.88	2579.00
277.35	2575.00
277.82	2579.00
278.29	2580.00
278.76	2576.00
279.22	2588.00
279.69	2586.00
280.16	2583.00
280.63	2584.00
281.10	2585.00
281.57	2583.00
282.04	2582.00
282.50	2577.00
282.97	2589.00
283.44	2583.00
283.91	2585.00
284.38	2582.00
284.85	2579.00
285.31	2577.00
285.78	2583.00
286.25	2577.00
286.72	2585.00
287.19	2585.00
287.65	2587.00
288.12	2574.00
288.59	2579.00
289.06	2582.00
289.53	2592.00
289.99	2576.00
290.46	2586.00
290.93	2581.00
291.40	2579.00
291.87	2583.00
292.33	2588.00
292.80	2580.00
293.27	2585.00
293.74	2576.00
294.21	2586.00
294.67	2581.00
295.14	2581.00
295.61	2577.00
296.08	2582.00
296.54	2580.00
297.01	2577.00
297.48	2584.00
297.95	2578.00
298.42	2583.00
298.88	2588.00
299.35	2582.00
299.82	2591.00
300.29	2582.00
300.75	2578.00
301.22	2576.00
301.69	2589.00
302.16	2588.00
302.62	2578.00
303.09	2580.00
303.56	2583.00
304.03	2579.00
304.49	2583.00
304.96	2584.00
305.43	2590.00
305.90	2586.00
306.36	2580.00
306.83	2585.00
307.30	2590.00
307.76	2589.00
308.23	2592.00
308.70	2594.00
309.17	2597.00
309.63	2598.00
310.10	2601.00
310.57	2602.00
311.03	2604.00
311.50	2606.00
311.97	2606.00
312.44	2618.00
312.90	2614.00
313.37	2614.00
313.84	2627.00
314.30	2621.00
314.77	2625.00
315.24	2622.00
315.70	2626.00
316.17	2625.00
316.64	2642.00
317.10	2649.00
317.57	2657.00
318.04	2652.00
318.50	2649.00
318.97	2656.00
319.44	2659.00
319.90	2661.00
320.37	2677.00
320.84	2684.00
321.30	2682.00
321.77	2675.00
322.24	2674.00
322.70	2674.00
323.17	2682.00
323.64	2679.00
324.10	2701.00
324.57	2694.00
325.04	2712.00
325.50	2710.00
325.97	2748.00
326.44	2731.00
326.90	2779.00
327.37	2740.00
327.84	2743.00
328.30	2761.00
328.77	2734.00
329.23	2763.00
329.70	2788.00
330.17	2785.00
330.63	2771.00
331.10	2774.00
331.56	2765.00
332.03	2779.00
332.50	2772.00
332.96	2773.00
333.43	2762.00
333.90	2761.00
334.36	2775.00
334.83	2783.00
335.29	2768.00
335.76	2776.00
336.22	2755.00
336.69	2771.00
337.16	2763.00
337.62	2753.00
338.09	2777.00
338.55	2784.00
339.02	2792.00
339.49	2809.00
339.95	2798.00
340.42	2833.00
340.88	2812.00
341.35	2812.00
341.81	2821.00
342.28	2807.00
342.75	2824.00
343.21	2812.00
343.68	2830.00
344.14	2802.00
344.61	2780.00
345.07	2809.00
345.54	2820.00
346.00	2841.00
346.47	2814.00
346.93	2848.00
347.40	2856.00
347.87	2831.00
348.33	2842.00
348.80	2864.00
349.26	2845.00
349.73	2855.00
350.19	2866.00
350.66	2877.00
351.12	2878.00
351.59	2864.00
352.05	2869.00
352.52	2857.00
352.98	2853.00
353.45	2887.00
353.91	2902.00
354.38	2917.00
354.84	2921.00
355.31	2915.00
355.77	2894.00
356.24	2881.00
356.70	2864.00
357.17	2838.00
357.63	2843.00
358.10	2830.00
358.56	2818.00
359.03	2852.00
359.49	2871.00
359.96	2903.00
360.42	2900.00
360.89	2897.00
361.35	2877.00
361.82	2887.00
362.28	2896.00
362.75	2914.00
363.21	2932.00
363.67	2919.00
364.14	2927.00
364.60	2939.00
365.07	2941.00
365.53	2965.00
366.00	2972.00
366.46	3027.00
366.93	3003.00
367.39	2984.00
367.86	2972.00
368.32	2976.00
368.78	2985.00
369.25	2979.00
369.71	3011.00
370.18	3008.00
370.64	2995.00
371.11	2981.00
371.57	2985.00
372.03	2983.00
372.50	2971.00
372.96	2962.00
373.43	2941.00
373.89	2904.00
374.35	2952.00
374.82	2962.00
375.28	2959.00
375.75	3005.00
376.21	3022.00
376.67	3039.00
377.14	3041.00
377.60	3075.00
378.07	3092.00
378.53	3108.00
378.99	3055.00
379.46	3022.00
379.92	3015.00
380.39	3052.00
380.85	3073.00
381.31	3034.00
381.78	3021.00
382.24	2965.00
382.70	2915.00
383.17	2902.00
383.63	2932.00
384.09	2931.00
384.56	2989.00
385.02	3044.00
385.48	3051.00
385.95	3024.00
386.41	3015.00
386.88	3060.00
387.34	3055.00
387.80	3062.00
388.27	3073.00
388.73	3091.00
389.19	3109.00
389.66	3161.00
390.12	3181.00
390.58	3167.00
391.05	3170.00
391.51	3197.00
391.97	3163.00
392.43	3098.00
392.90	3032.00
393.36	2967.00
393.82	2967.00
394.29	3032.00
394.75	3146.00
395.21	3139.00
395.68	3189.00
396.14	3175.00
396.60	3106.00
397.07	3067.00
397.53	3135.00
397.99	3285.00
398.45	3396.00
398.92	3451.00
399.38	3475.00
399.84	3475.00
400.31	3531.00
400.77	3519.00
401.23	3488.00
401.69	3565.00
402.16	3562.00
402.62	3574.00
403.08	3582.00
403.54	3561.00
404.01	3543.00
404.47	3576.00
404.93	3565.00
405.39	3557.00
405.86	3587.00
406.32	3557.00
406.78	3554.00
407.24	3561.00
407.71	3605.00
408.17	3575.00
408.63	3607.00
409.09	3657.00
409.56	3657.00
410.02	3583.00
410.48	3577.00
410.94	3638.00
411.40	3678.00
411.87	3712.00
412.33	3715.00
412.79	3736.00
413.25	3715.00
413.71	3676.00
414.18	3708.00
414.64	3762.00
415.10	3731.00
415.56	3730.00
416.02	3729.00
416.49	3761.00
416.95	3762.00
417.41	3759.00
417.87	3699.00
418.33	3715.00
418.80	3720.00
419.26	3773.00
419.72	3772.00
420.18	3775.00
420.64	3758.00
421.10	3825.00
421.57	3814.00
422.03	3795.00
422.49	3748.00
422.95	3778.00
423.41	3746.00
423.87	3791.00
424.34	3782.00
424.80	3813.00
425.26	3823.00
425.72	3803.00
426.18	3796.00
426.64	3785.00
427.10	3797.00
427.57	3746.00
428.03	3739.00
428.49	3789.00
428.95	3716.00
429.41	3682.00
429.87	3610.00
430.33	3618.00
430.79	3582.00
431.26	3691.00
431.72	3755.00
432.18	3945.00
432.64	3923.00
433.10	3845.00
433.56	3924.00
434.02	3881.00
434.48	3870.00
434.94	3968.00
435.40	3986.00
435.87	3984.00
436.33	4027.00
436.79	4048.00
437.25	4026.00
437.71	3984.00
438.17	3962.00
438.63	3967.00
439.09	3959.00
439.55	4053.00
440.01	4075.00
440.47	4041.00
440.93	4059.00
441.39	4129.00
441.85	4180.00
442.32	4228.00
442.78	4192.00
443.24	4209.00
443.70	4247.00
444.16	4243.00
444.62	4199.00
445.08	4247.00
445.54	4211.00
446.00	4235.00
446.46	4208.00
446.92	4260.00
447.38	4308.00
447.84	4362.00
448.30	4373.00
448.76	4384.00
449.22	4377.00
449.68	4403.00
450.14	4452.00
450.60	4422.00
451.06	4486.00
451.52	4403.00
451.98	4392.00
452.44	4372.00
452.90	4365.00
453.36	4319.00
453.82	4385.00
454.28	4445.00
454.74	4440.00
455.20	4427.00
455.66	4424.00
456.12	4492.00
456.58	4469.00
457.04	4545.00
457.50	4504.00
457.96	4463.00
458.42	4477.00
458.88	4437.00
459.34	4501.00
459.80	4523.00
460.26	4496.00
460.72	4549.00
461.18	4612.00
461.64	4561.00
462.10	4578.00
462.55	4575.00
463.01	4577.00
463.47	4540.00
463.93	4513.00
464.39	4551.00
464.85	4532.00
465.31	4590.00
465.77	4582.00
466.23	4548.00
466.69	4558.00
467.15	4541.00
467.61	4553.00
468.07	4599.00
468.52	4616.00
468.98	4574.00
469.44	4595.00
469.90	4551.00
470.36	4574.00
470.82	4608.00
471.28	4555.00
471.74	4605.00
472.20	4691.00
472.66	4707.00
473.11	4658.00
473.57	4661.00
474.03	4708.00
474.49	4668.00
474.95	4724.00
475.41	4675.00
475.87	4635.00
476.33	4675.00
476.78	4666.00
477.24	4742.00
477.70	4723.00
478.16	4760.00
478.62	4697.00
479.08	4719.00
479.54	4734.00
479.99	4791.00
480.45	4783.00
480.91	4784.00
481.37	4765.00
481.83	4821.00
482.29	4802.00
482.74	4758.00
483.20	4791.00
483.66	4741.00
484.12	4764.00
484.58	4676.00
485.04	4627.00
485.49	4572.00
485.95	4571.00
486.41	4425.00
486.87	4468.00
487.33	4619.00
487.78	4659.00
488.24	4712.00
488.70	4728.00
489.16	4727.00
489.62	4751.00
490.07	4805.00
490.53	4761.00
490.99	4798.00
491.45	4802.00
491.90	4749.00
492.36	4763.00
492.82	4731.00
493.28	4738.00
493.74	4848.00
494.19	4856.00
494.65	4820.00
495.11	4882.00
495.57	4879.00
496.02	4872.00
496.48	4829.00
496.94	4894.00
497.40	4815.00
497.85	4817.00
498.31	4835.00
498.77	4789.00
499.23	4790.00
499.68	4831.00
500.14	4826.00
500.60	4768.00
501.06	4792.00
501.51	4740.00
501.97	4735.00
502.43	4730.00
502.88	4796.00
503.34	4792.00
503.80	4766.00
504.26	4785.00
504.71	4830.00
505.17	4847.00
505.63	4901.00
506.08	4879.00
506.54	4885.00
507.00	4882.00
507.45	4860.00
507.91	4829.00
508.37	4898.00
508.82	4922.00
509.28	4919.00
509.74	4962.00
510.19	4888.00
510.65	4968.00
511.11	4933.00
511.56	4969.00
512.02	4922.00
512.48	4997.00
512.93	4891.00
513.39	4886.00
513.85	4935.00
514.30	4866.00
514.76	4866.00
515.22	4884.00
515.67	4821.00
516.13	4809.00
516.59	4675.00
517.04	4738.00
517.50	4628.00
517.95	4710.00
518.41	4780.00
518.87	4819.00
519.32	4818.00
519.78	4876.00
520.24	4880.00
520.69	4906.00
521.15	4988.00
521.60	4937.00
522.06	4971.00
522.52	4954.00
522.97	4930.00
523.43	4950.00
523.88	5050.00
524.34	5100.00
524.80	5042.00
525.25	5059.00
525.71	4997.00
526.16	4944.00
526.62	4844.00
527.07	4812.00
527.53	4896.00
527.99	4966.00
528.44	5112.00
528.90	5135.00
529.35	5053.00
529.81	5091.00
530.26	5172.00
530.72	5124.00
531.17	5156.00
531.63	5133.00
532.09	5141.00
532.54	5047.00
533.00	5039.00
533.45	4988.00
533.91	5024.00
534.36	5090.00
534.82	5139.00
535.27	5159.00
535.73	5162.00
536.18	5141.00
536.64	5111.00
537.09	5101.00
537.55	5106.00
538.00	5131.00
538.46	5125.00
538.91	5091.00
539.37	5058.00
539.82	5058.00
540.28	5031.00
540.73	5037.00
541.19	5066.00
541.64	5072.00
542.10	5078.00
542.55	5084.00
543.01	5127.00
543.46	5159.00
543.92	5079.00
544.37	5148.00
544.83	5197.00
545.28	5122.00
545.74	5134.00
546.19	5175.00
546.64	5176.00
547.10	5136.00
547.55	5129.00
548.01	5152.00
548.46	5130.00
548.92	5226.00
549.37	5203.00
549.83	5214.00
550.28	5161.00
550.73	5160.00
551.19	5152.00
551.64	5169.00
552.10	5199.00
552.55	5187.00
553.00	5198.00
553.46	5169.00
553.91	5195.00
554.37	5172.00
554.82	5182.00
555.28	5208.00
555.73	5198.00
556.18	5213.00
556.64	5114.00
557.09	5182.00
557.54	5164.00
558.00	5138.00
558.45	5110.00
558.91	5137.00
559.36	5096.00
559.81	5089.00
560.27	5182.00
560.72	5150.00
561.17	5174.00
561.63	5232.00
562.08	5141.00
562.54	5154.00
562.99	5214.00
563.44	5206.00
563.90	5175.00
564.35	5155.00
564.80	5198.00
565.26	5135.00
565.71	5075.00
566.16	5194.00
566.62	5206.00
567.07	5123.00
567.52	5155.00
567.98	5163.00
568.43	5154.00
568.88	5110.00
569.34	5140.00
569.79	5129.00
570.24	5067.00
570.69	5131.00
571.15	5088.00
571.60	5120.00
572.05	5169.00
572.51	5177.00
572.96	5205.00
573.41	5164.00
573.86	5191.00
574.32	5183.00
574.77	5212.00
575.22	5159.00
575.68	5140.00
576.13	5131.00
576.58	5158.00
577.03	5198.00
577.49	5175.00
577.94	5147.00
578.39	5207.00
578.84	5162.00
579.30	5109.00
579.75	5175.00
580.20	5218.00
580.65	5227.00
581.11	5235.00
581.56	5305.00
582.01	5264.00
582.46	5277.00
582.92	5323.00
583.37	5295.00
583.82	5322.00
584.27	5338.00
584.72	5303.00
585.18	5243.00
585.63	5220.00
586.08	5200.00
586.53	5215.00
586.98	5238.00
587.44	5233.00
587.89	5275.00
588.34	5179.00
588.79	5005.00
589.24	4964.00
589.70	4975.00
590.15	5037.00
590.60	5083.00
591.05	5132.00
591.50	5117.00
591.96	5200.00
592.41	5170.00
592.86	5175.00
593.31	5167.00
593.76	5160.00
594.21	5161.00
594.66	5120.00
595.12	5160.00
595.57	5148.00
596.02	5227.00
596.47	5187.00
596.92	5186.00
597.37	5170.00
597.82	5211.00
598.28	5125.00
598.73	5173.00
599.18	5187.00
599.63	5187.00
600.08	5178.00
600.53	5193.00
600.98	5212.00
601.43	5153.00
601.88	5243.00
602.34	5180.00
602.79	5160.00
603.24	5260.00
603.69	5242.00
604.14	5311.00
604.59	5210.00
605.04	5300.00
605.49	5282.00
605.94	5264.00
606.39	5268.00
606.84	5326.00
607.30	5253.00
607.75	5297.00
608.20	5252.00
608.65	5218.00
609.10	5221.00
609.55	5235.00
610.00	5230.00
610.45	5244.00
610.90	5207.00
611.35	5275.00
611.80	5256.00
612.25	5236.00
612.70	5202.00
613.15	5251.00
613.60	5241.00
614.05	5182.00
614.50	5260.00
614.95	5177.00
615.40	5252.00
615.85	5191.00
616.30	5149.00
616.75	5153.00
617.20	5174.00
617.65	5258.00
618.10	5256.00
618.55	5245.00
619.00	5191.00
619.45	5310.00
619.90	5282.00
620.35	5266.00
620.80	5275.00
621.25	5226.00
621.70	5255.00
622.15	5267.00
622.60	5210.00
623.05	5160.00
623.50	5230.00
623.95	5175.00
624.40	5194.00
624.85	5211.00
625.30	5158.00
625.75	5210.00
626.20	5185.00
626.65	5258.00
627.10	5238.00
627.55	5129.00
627.99	5137.00
628.44	5159.00
628.89	5159.00
629.34	5170.00
629.79	5115.00
630.24	5170.00
630.69	5186.00
631.14	5188.00
631.59	5207.00
632.04	5148.00
632.49	5194.00
632.94	5241.00
633.38	5228.00
633.83	5218.00
634.28	5212.00
634.73	5246.00
635.18	5252.00
635.63	5274.00
636.08	5247.00
636.53	5269.00
636.97	5310.00
637.42	5307.00
637.87	5291.00
638.32	5301.00
638.77	5304.00
639.22	5343.00
639.67	5278.00
640.11	5266.00
640.56	5244.00
641.01	5262.00
641.46	5257.00
641.91	5293.00
642.36	5327.00
642.81	5365.00
643.25	5259.00
643.70	5289.00
644.15	5269.00
644.60	5298.00
645.05	5275.00
645.49	5257.00
645.94	5254.00
646.39	5200.00
646.84	5251.00
647.29	5208.00
647.73	5229.00
648.18	5227.00
648.63	5197.00
649.08	5222.00
649.53	5123.00
649.97	5157.00
650.42	5198.00
650.87	5261.00
651.32	5282.00
651.77	5222.00
652.21	5197.00
652.66	5188.00
653.11	5253.00
653.56	5298.00
654.00	5231.00
654.45	5253.00
654.90	5171.00
655.35	5177.00
655.79	4959.00
656.24	4819.00
656.69	4864.00
657.14	4907.00
657.58	5104.00
658.03	5175.00
658.48	5270.00
658.92	5237.00
659.37	5183.00
659.82	5255.00
660.27	5243.00
660.71	5249.00
661.16	5338.00
661.61	5348.00
662.05	5318.00
662.50	5292.00
662.95	5293.00
663.39	5264.00
663.84	5271.00
664.29	5314.00
664.74	5291.00
665.18	5269.00
665.63	5302.00
666.08	5304.00
666.52	5339.00
666.97	5324.00
667.42	5291.00
667.86	5261.00
668.31	5246.00
668.76	5341.00
669.20	5277.00
669.65	5317.00
670.09	5261.00
670.54	5320.00
670.99	5345.00
671.43	5232.00
671.88	5290.00
672.33	5294.00
672.77	5283.00
673.22	5304.00
673.66	5325.00
674.11	5300.00
674.56	5278.00
675.00	5283.00
675.45	5218.00
675.90	5308.00
676.34	5252.00
676.79	5298.00
677.23	5245.00
677.68	5247.00
678.12	5232.00
678.57	5228.00
679.02	5248.00
679.46	5268.00
679.91	5273.00
680.35	5262.00
680.80	5268.00
681.25	5286.00
681.69	5186.00
682.14	5253.00
682.58	5233.00
683.03	5198.00
683.47	5236.00
683.92	5140.00
684.36	5186.00
684.81	5214.00
685.25	5203.00
685.70	5148.00
686.15	5140.00
686.59	4890.00
687.04	4499.00
687.48	4385.00
687.93	4503.00
688.37	4658.00
688.82	4693.00
689.26	4767.00
689.71	4690.00
690.15	4786.00
690.60	4819.00
691.04	4863.00
691.49	4935.00
691.93	4906.00
692.38	4916.00
692.82	4990.00
693.27	4990.00
693.71	4918.00
694.16	4855.00
694.60	4915.00
695.04	4929.00
695.49	4879.00
695.93	5018.00
696.38	4979.00
696.82	5085.00
697.27	5081.00
697.71	5130.00
698.16	4984.00
698.60	4989.00
699.04	4949.00
699.49	4949.00
699.93	4955.00
700.38	4910.00
700.82	4948.00
701.27	4945.00
701.71	4877.00
702.15	4991.00
702.60	4900.00
703.04	4960.00
703.49	5012.00
703.93	4993.00
704.37	5024.00
704.82	5031.00
705.26	5046.00
705.71	5071.00
706.15	5031.00
706.59	4971.00
707.04	4995.00
707.48	4995.00
707.93	5062.00
708.37	5047.00
708.81	5022.00
709.26	5047.00
709.70	5000.00
710.14	5031.00
710.59	5066.00
711.03	5040.00
711.47	5028.00
711.92	4999.00
712.36	4969.00
712.80	5020.00
713.25	5003.00
713.69	5014.00
714.13	4962.00
714.58	4980.00
715.02	4913.00
715.46	4919.00
715.91	4865.00
716.35	4828.00
716.79	4662.00
717.24	4515.00
717.68	4440.00
718.12	4376.00
718.57	4334.00
719.01	4283.00
719.45	4231.00
719.89	4329.00
720.34	4315.00
720.78	4423.00
721.22	4516.00
721.66	4649.00
722.11	4737.00
722.55	4694.00
722.99	4600.00
723.44	4445.00
723.88	4384.00
724.32	4381.00
724.76	4440.00
725.21	4411.00
725.65	4455.00
726.09	4469.00
726.53	4456.00
726.97	4548.00
727.42	4445.00
727.86	4379.00
728.30	4471.00
728.74	4469.00
729.19	4456.00
729.63	4471.00
730.07	4488.00
730.51	4537.00
730.95	4504.00
731.40	4503.00
731.84	4547.00
732.28	4643.00
732.72	4703.00
733.16	4664.00
733.61	4710.00
734.05	4749.00
734.49	4756.00
734.93	4757.00
735.37	4659.00
735.81	4721.00
736.26	4702.00
736.70	4743.00
737.14	4752.00
737.58	4750.00
738.02	4722.00
738.46	4683.00
738.90	4669.00
739.35	4749.00
739.79	4726.00
740.23	4769.00
740.67	4747.00
741.11	4666.00
741.55	4743.00
741.99	4766.00
742.44	4732.00
742.88	4732.00
743.32	4799.00
743.76	4791.00
744.20	4793.00
744.64	4749.00
745.08	4738.00
745.52	4787.00
745.96	4832.00
746.40	4780.00
746.84	4816.00
747.29	4860.00
747.73	4796.00
748.17	4779.00
748.61	4792.00
749.05	4745.00
749.49	4775.00
749.93	4823.00
750.37	4869.00
750.81	4799.00
751.25	4727.00
751.69	4815.00
752.13	4843.00
752.57	4770.00
753.01	4779.00
753.45	4807.00
753.89	4776.00
754.33	4765.00
754.77	4792.00
755.21	4855.00
755.65	4835.00
756.09	4807.00
756.53	4820.00
756.97	4809.00
757.41	4782.00
757.85	4781.00
758.29	4686.00
758.73	4699.00
759.17	4442.00
759.61	3961.00
760.05	3345.00
760.49	2985.00
760.93	2929.00
761.37	3114.00
761.81	3486.00
762.25	3630.00
762.69	3495.00
763.13	3359.00
763.57	3368.00
764.01	3442.00
764.45	3591.00
764.89	3708.00
765.33	3855.00
765.77	3990.00
766.21	4099.00
766.65	4290.00
767.09	4367.00
767.53	4457.00
767.96	4544.00
768.40	4564.00
768.84	4663.00
769.28	4595.00
769.72	4627.00
770.16	4678.00
770.60	4668.00
771.04	4703.00
771.48	4708.00
771.92	4726.00
772.35	4719.00
772.79	4681.00
773.23	4679.00
773.67	4683.00
774.11	4669.00
774.55	4648.00
774.99	4626.00
775.43	4688.00
775.86	4610.00
776.30	4673.00
776.74	4655.00
777.18	4656.00
777.62	4692.00
778.06	4688.00
778.50	4626.00
778.93	4667.00
779.37	4656.00
779.81	4661.00
780.25	4647.00
780.69	4615.00
781.12	4617.00
781.56	4606.00
782.00	4640.00
782.44	4635.00
782.88	4644.00
783.32	4637.00
783.75	4620.00
784.19	4583.00
784.63	4608.00
785.07	4527.00
785.50	4544.00
785.94	4537.00
786.38	4524.00
786.82	4522.00
787.26	4534.00
787.69	4521.00
788.13	4558.00
