SpectraSuite Data File
++++++++++++++++++++++++++++++++++++
Date: Thu Aug 05 09:52:32 EEST 2021
User: CanSEE
Dark Spectrum Present: No
Reference Spectrum Present: No
Number of Sampled Component Spectra: 1
Spectrometers: MAYP112785
Integration Time (usec): 10000 (MAYP112785)
Spectra Averaged: 1 (MAYP112785)
Boxcar Smoothing: 0 (MAYP112785)
Correct for Electrical Dark: No (MAYP112785)
Strobe/Lamp Enabled: No (MAYP112785)
Correct for Detector Non-linearity: No (MAYP112785)
Correct for Stray Light: No (MAYP112785)
Number of Pixels in Processed Spectrum: 2068
>>>>>Begin Processed Spectral Data<<<<<
198.35	3435.00
198.82	2477.00
199.30	2575.00
199.77	2555.00
200.24	2582.00
200.71	2581.00
201.18	2579.00
201.65	2586.00
202.13	2585.00
202.60	2588.00
203.07	2583.00
203.54	2580.00
204.01	2583.00
204.48	2587.00
204.96	2582.00
205.43	2583.00
205.90	2583.00
206.37	2583.00
206.84	2577.00
207.31	2576.00
207.78	2581.00
208.26	2587.00
208.73	2582.00
209.20	2583.00
209.67	2585.00
210.14	2590.00
210.61	2578.00
211.08	2581.00
211.56	2580.00
212.03	2581.00
212.50	2570.00
212.97	2580.00
213.44	2583.00
213.91	2588.00
214.38	2586.00
214.85	2582.00
215.33	2582.00
215.80	2579.00
216.27	2583.00
216.74	2580.00
217.21	2582.00
217.68	2591.00
218.15	2581.00
218.62	2580.00
219.09	2580.00
219.57	2581.00
220.04	2580.00
220.51	2586.00
220.98	2576.00
221.45	2585.00
221.92	2585.00
222.39	2586.00
222.86	2579.00
223.33	2580.00
223.80	2583.00
224.27	2592.00
224.74	2581.00
225.22	2575.00
225.69	2583.00
226.16	2587.00
226.63	2587.00
227.10	2582.00
227.57	2585.00
228.04	2583.00
228.51	2583.00
228.98	2580.00
229.45	2583.00
229.92	2580.00
230.39	2585.00
230.86	2583.00
231.33	2583.00
231.80	2591.00
232.27	2582.00
232.75	2579.00
233.22	2591.00
233.69	2580.00
234.16	2591.00
234.63	2585.00
235.10	2580.00
235.57	2578.00
236.04	2576.00
236.51	2583.00
236.98	2576.00
237.45	2584.00
237.92	2577.00
238.39	2580.00
238.86	2578.00
239.33	2626.00
239.80	2585.00
240.27	2583.00
240.74	2591.00
241.21	2589.00
241.68	2584.00
242.15	2581.00
242.62	2588.00
243.09	2580.00
243.56	2579.00
244.03	2579.00
244.50	2581.00
244.97	2571.00
245.44	2590.00
245.91	2584.00
246.38	2578.00
246.85	2584.00
247.32	2586.00
247.79	2585.00
248.26	2582.00
248.73	2579.00
249.20	2580.00
249.67	2583.00
250.14	2583.00
250.61	2592.00
251.08	2579.00
251.55	2586.00
252.02	2584.00
252.49	2580.00
252.96	2590.00
253.43	2575.00
253.90	2586.00
254.37	2584.00
254.84	2583.00
255.31	2585.00
255.77	2578.00
256.24	2582.00
256.71	2585.00
257.18	2584.00
257.65	2588.00
258.12	2583.00
258.59	2580.00
259.06	2585.00
259.53	2577.00
260.00	2585.00
260.47	2592.00
260.94	2591.00
261.41	2585.00
261.88	2584.00
262.35	2578.00
262.81	2588.00
263.28	2583.00
263.75	2589.00
264.22	2588.00
264.69	2587.00
265.16	2579.00
265.63	2575.00
266.10	2584.00
266.57	2581.00
267.04	2584.00
267.51	2581.00
267.97	2584.00
268.44	2586.00
268.91	2583.00
269.38	2580.00
269.85	2581.00
270.32	2582.00
270.79	2585.00
271.26	2581.00
271.73	2583.00
272.19	2581.00
272.66	2586.00
273.13	2582.00
273.60	2583.00
274.07	2584.00
274.54	2587.00
275.01	2582.00
275.48	2583.00
275.94	2579.00
276.41	2585.00
276.88	2590.00
277.35	2579.00
277.82	2579.00
278.29	2586.00
278.76	2583.00
279.22	2581.00
279.69	2587.00
280.16	2581.00
280.63	2578.00
281.10	2589.00
281.57	2588.00
282.04	2582.00
282.50	2589.00
282.97	2582.00
283.44	2591.00
283.91	2580.00
284.38	2585.00
284.85	2583.00
285.31	2588.00
285.78	2589.00
286.25	2575.00
286.72	2578.00
287.19	2581.00
287.65	2582.00
288.12	2588.00
288.59	2589.00
289.06	2579.00
289.53	2585.00
289.99	2583.00
290.46	2582.00
290.93	2593.00
291.40	2587.00
291.87	2579.00
292.33	2581.00
292.80	2582.00
293.27	2584.00
293.74	2580.00
294.21	2583.00
294.67	2585.00
295.14	2584.00
295.61	2580.00
296.08	2580.00
296.54	2581.00
297.01	2575.00
297.48	2584.00
297.95	2582.00
298.42	2588.00
298.88	2585.00
299.35	2582.00
299.82	2584.00
300.29	2581.00
300.75	2577.00
301.22	2573.00
301.69	2585.00
302.16	2582.00
302.62	2578.00
303.09	2583.00
303.56	2582.00
304.03	2587.00
304.49	2588.00
304.96	2581.00
305.43	2591.00
305.90	2584.00
306.36	2595.00
306.83	2581.00
307.30	2594.00
307.76	2586.00
308.23	2596.00
308.70	2594.00
309.17	2589.00
309.63	2594.00
310.10	2605.00
310.57	2597.00
311.03	2610.00
311.50	2615.00
311.97	2612.00
312.44	2606.00
312.90	2616.00
313.37	2620.00
313.84	2622.00
314.30	2630.00
314.77	2632.00
315.24	2634.00
315.70	2626.00
316.17	2624.00
316.64	2649.00
317.10	2652.00
317.57	2658.00
318.04	2659.00
318.50	2657.00
318.97	2653.00
319.44	2661.00
319.90	2657.00
320.37	2690.00
320.84	2684.00
321.30	2671.00
321.77	2662.00
322.24	2679.00
322.70	2683.00
323.17	2683.00
323.64	2689.00
324.10	2698.00
324.57	2709.00
325.04	2701.00
325.50	2709.00
325.97	2739.00
326.44	2753.00
326.90	2746.00
327.37	2742.00
327.84	2758.00
328.30	2747.00
328.77	2747.00
329.23	2774.00
329.70	2774.00
330.17	2793.00
330.63	2769.00
331.10	2770.00
331.56	2763.00
332.03	2768.00
332.50	2791.00
332.96	2774.00
333.43	2775.00
333.90	2776.00
334.36	2771.00
334.83	2789.00
335.29	2772.00
335.76	2778.00
336.22	2756.00
336.69	2761.00
337.16	2768.00
337.62	2757.00
338.09	2782.00
338.55	2788.00
339.02	2801.00
339.49	2813.00
339.95	2800.00
340.42	2809.00
340.88	2830.00
341.35	2808.00
341.81	2825.00
342.28	2814.00
342.75	2812.00
343.21	2823.00
343.68	2815.00
344.14	2812.00
344.61	2770.00
345.07	2806.00
345.54	2825.00
346.00	2826.00
346.47	2826.00
346.93	2855.00
347.40	2848.00
347.87	2829.00
348.33	2831.00
348.80	2852.00
349.26	2854.00
349.73	2855.00
350.19	2878.00
350.66	2880.00
351.12	2855.00
351.59	2864.00
352.05	2867.00
352.52	2863.00
352.98	2866.00
353.45	2880.00
353.91	2917.00
354.38	2902.00
354.84	2891.00
355.31	2903.00
355.77	2908.00
356.24	2868.00
356.70	2874.00
357.17	2850.00
357.63	2831.00
358.10	2850.00
358.56	2825.00
359.03	2823.00
359.49	2893.00
359.96	2903.00
360.42	2877.00
360.89	2888.00
361.35	2893.00
361.82	2888.00
362.28	2899.00
362.75	2925.00
363.21	2941.00
363.67	2904.00
364.14	2927.00
364.60	2933.00
365.07	2938.00
365.53	2959.00
366.00	3008.00
366.46	3016.00
366.93	2986.00
367.39	2997.00
367.86	2995.00
368.32	2977.00
368.78	2971.00
369.25	2990.00
369.71	3014.00
370.18	3015.00
370.64	3012.00
371.11	2970.00
371.57	2994.00
372.03	3002.00
372.50	2959.00
372.96	2966.00
373.43	2957.00
373.89	2909.00
374.35	2938.00
374.82	2949.00
375.28	2960.00
375.75	3010.00
376.21	3020.00
376.67	3033.00
377.14	3044.00
377.60	3060.00
378.07	3113.00
378.53	3105.00
378.99	3107.00
379.46	3041.00
379.92	3038.00
380.39	3025.00
380.85	3050.00
381.31	3030.00
381.78	2979.00
382.24	2977.00
382.70	2945.00
383.17	2919.00
383.63	2926.00
384.09	2928.00
384.56	2982.00
385.02	3056.00
385.48	3025.00
385.95	3022.00
386.41	3007.00
386.88	3057.00
387.34	3049.00
387.80	3050.00
388.27	3070.00
388.73	3061.00
389.19	3114.00
389.66	3130.00
390.12	3184.00
390.58	3203.00
391.05	3157.00
391.51	3178.00
391.97	3151.00
392.43	3110.00
392.90	3029.00
393.36	2979.00
393.82	2980.00
394.29	3055.00
394.75	3160.00
395.21	3176.00
395.68	3219.00
396.14	3171.00
396.60	3108.00
397.07	3051.00
397.53	3149.00
397.99	3246.00
398.45	3371.00
398.92	3446.00
399.38	3500.00
399.84	3489.00
400.31	3515.00
400.77	3543.00
401.23	3556.00
401.69	3557.00
402.16	3589.00
402.62	3560.00
403.08	3562.00
403.54	3588.00
404.01	3553.00
404.47	3567.00
404.93	3527.00
405.39	3542.00
405.86	3537.00
406.32	3549.00
406.78	3542.00
407.24	3557.00
407.71	3586.00
408.17	3602.00
408.63	3626.00
409.09	3635.00
409.56	3638.00
410.02	3657.00
410.48	3602.00
410.94	3627.00
411.40	3664.00
411.87	3708.00
412.33	3745.00
412.79	3732.00
413.25	3686.00
413.71	3703.00
414.18	3675.00
414.64	3753.00
415.10	3752.00
415.56	3753.00
416.02	3718.00
416.49	3764.00
416.95	3739.00
417.41	3726.00
417.87	3732.00
418.33	3711.00
418.80	3697.00
419.26	3749.00
419.72	3736.00
420.18	3779.00
420.64	3823.00
421.10	3773.00
421.57	3819.00
422.03	3799.00
422.49	3763.00
422.95	3752.00
423.41	3756.00
423.87	3809.00
424.34	3812.00
424.80	3809.00
425.26	3831.00
425.72	3754.00
426.18	3809.00
426.64	3764.00
427.10	3782.00
427.57	3731.00
428.03	3776.00
428.49	3751.00
428.95	3714.00
429.41	3645.00
429.87	3598.00
430.33	3619.00
430.79	3607.00
431.26	3628.00
431.72	3785.00
432.18	3906.00
432.64	3927.00
433.10	3893.00
433.56	3922.00
434.02	3890.00
434.48	3875.00
434.94	3925.00
435.40	4014.00
435.87	4009.00
436.33	4022.00
436.79	4092.00
437.25	4020.00
437.71	3984.00
438.17	3958.00
438.63	3958.00
439.09	3931.00
439.55	4000.00
440.01	4054.00
440.47	4051.00
440.93	4095.00
441.39	4145.00
441.85	4192.00
442.32	4184.00
442.78	4206.00
443.24	4184.00
443.70	4222.00
444.16	4194.00
444.62	4225.00
445.08	4232.00
445.54	4234.00
446.00	4251.00
446.46	4212.00
446.92	4253.00
447.38	4263.00
447.84	4326.00
448.30	4370.00
448.76	4299.00
449.22	4394.00
449.68	4321.00
450.14	4432.00
450.60	4432.00
451.06	4481.00
451.52	4438.00
451.98	4355.00
452.44	4359.00
452.90	4374.00
453.36	4387.00
453.82	4331.00
454.28	4406.00
454.74	4406.00
455.20	4434.00
455.66	4508.00
456.12	4463.00
456.58	4490.00
457.04	4484.00
457.50	4533.00
457.96	4503.00
458.42	4439.00
458.88	4437.00
459.34	4455.00
459.80	4533.00
460.26	4496.00
460.72	4559.00
461.18	4571.00
461.64	4535.00
462.10	4583.00
462.55	4627.00
463.01	4630.00
463.47	4591.00
463.93	4520.00
464.39	4520.00
464.85	4560.00
465.31	4535.00
465.77	4546.00
466.23	4590.00
466.69	4533.00
467.15	4529.00
467.61	4564.00
468.07	4598.00
468.52	4659.00
468.98	4562.00
469.44	4537.00
469.90	4545.00
470.36	4519.00
470.82	4536.00
471.28	4596.00
471.74	4628.00
472.20	4678.00
472.66	4739.00
473.11	4695.00
473.57	4673.00
474.03	4639.00
474.49	4666.00
474.95	4655.00
475.41	4656.00
475.87	4677.00
476.33	4599.00
476.78	4669.00
477.24	4684.00
477.70	4761.00
478.16	4781.00
478.62	4767.00
479.08	4711.00
479.54	4796.00
479.99	4760.00
480.45	4735.00
480.91	4745.00
481.37	4728.00
481.83	4827.00
482.29	4813.00
482.74	4781.00
483.20	4738.00
483.66	4753.00
484.12	4738.00
484.58	4718.00
485.04	4654.00
485.49	4617.00
485.95	4515.00
486.41	4499.00
486.87	4487.00
487.33	4667.00
487.78	4684.00
488.24	4734.00
488.70	4716.00
489.16	4768.00
489.62	4766.00
490.07	4828.00
490.53	4809.00
490.99	4759.00
491.45	4738.00
491.90	4697.00
492.36	4729.00
492.82	4765.00
493.28	4798.00
493.74	4829.00
494.19	4864.00
494.65	4813.00
495.11	4848.00
495.57	4859.00
496.02	4852.00
496.48	4880.00
496.94	4892.00
497.40	4835.00
497.85	4837.00
498.31	4814.00
498.77	4788.00
499.23	4816.00
499.68	4821.00
500.14	4815.00
500.60	4776.00
501.06	4762.00
501.51	4762.00
501.97	4714.00
502.43	4820.00
502.88	4765.00
503.34	4782.00
503.80	4831.00
504.26	4808.00
504.71	4803.00
505.17	4870.00
505.63	4889.00
506.08	4974.00
506.54	4935.00
507.00	4837.00
507.45	4813.00
507.91	4862.00
508.37	4890.00
508.82	4849.00
509.28	4909.00
509.74	4923.00
510.19	4898.00
510.65	4925.00
511.11	4929.00
511.56	4955.00
512.02	4943.00
512.48	4946.00
512.93	4901.00
513.39	4850.00
513.85	4920.00
514.30	4876.00
514.76	4878.00
515.22	4918.00
515.67	4837.00
516.13	4802.00
516.59	4791.00
517.04	4716.00
517.50	4617.00
517.95	4727.00
518.41	4782.00
518.87	4815.00
519.32	4838.00
519.78	4896.00
520.24	4892.00
520.69	4965.00
521.15	4939.00
521.60	4967.00
522.06	4963.00
522.52	4946.00
522.97	4954.00
523.43	4978.00
523.88	5041.00
524.34	5037.00
524.80	5085.00
525.25	5014.00
525.71	4961.00
526.16	4941.00
526.62	4912.00
527.07	4878.00
527.53	4885.00
527.99	4973.00
528.44	5052.00
528.90	5090.00
529.35	5135.00
529.81	5095.00
530.26	5059.00
530.72	5163.00
531.17	5124.00
531.63	5136.00
532.09	5071.00
532.54	5066.00
533.00	4974.00
533.45	4984.00
533.91	5079.00
534.36	5087.00
534.82	5094.00
535.27	5148.00
535.73	5133.00
536.18	5130.00
536.64	5103.00
537.09	5080.00
537.55	5085.00
538.00	5051.00
538.46	5179.00
538.91	5052.00
539.37	5062.00
539.82	4983.00
540.28	4962.00
540.73	5070.00
541.19	5037.00
541.64	5106.00
542.10	5115.00
542.55	5073.00
543.01	5136.00
543.46	5069.00
543.92	5138.00
544.37	5153.00
544.83	5097.00
545.28	5176.00
545.74	5162.00
546.19	5136.00
546.64	5189.00
547.10	5171.00
547.55	5106.00
548.01	5139.00
548.46	5176.00
548.92	5253.00
549.37	5202.00
549.83	5181.00
550.28	5206.00
550.73	5197.00
551.19	5166.00
551.64	5247.00
552.10	5198.00
552.55	5181.00
553.00	5245.00
553.46	5185.00
553.91	5192.00
554.37	5197.00
554.82	5191.00
555.28	5191.00
555.73	5210.00
556.18	5126.00
556.64	5156.00
557.09	5203.00
557.54	5161.00
558.00	5073.00
558.45	5103.00
558.91	5108.00
559.36	5050.00
559.81	5125.00
560.27	5140.00
560.72	5157.00
561.17	5208.00
561.63	5148.00
562.08	5207.00
562.54	5131.00
562.99	5218.00
563.44	5183.00
563.90	5220.00
564.35	5180.00
564.80	5175.00
565.26	5144.00
565.71	5179.00
566.16	5100.00
566.62	5156.00
567.07	5175.00
567.52	5143.00
567.98	5222.00
568.43	5154.00
568.88	5147.00
569.34	5109.00
569.79	5095.00
570.24	5160.00
570.69	5066.00
571.15	5097.00
571.60	5111.00
572.05	5212.00
572.51	5202.00
572.96	5173.00
573.41	5168.00
573.86	5234.00
574.32	5127.00
574.77	5201.00
575.22	5147.00
575.68	5155.00
576.13	5162.00
576.58	5185.00
577.03	5154.00
577.49	5135.00
577.94	5149.00
578.39	5153.00
578.84	5167.00
579.30	5173.00
579.75	5179.00
580.20	5238.00
580.65	5213.00
581.11	5182.00
581.56	5284.00
582.01	5223.00
582.46	5212.00
582.92	5266.00
583.37	5308.00
583.82	5283.00
584.27	5292.00
584.72	5317.00
585.18	5254.00
585.63	5284.00
586.08	5222.00
586.53	5256.00
586.98	5263.00
587.44	5301.00
587.89	5236.00
588.34	5124.00
588.79	5008.00
589.24	4952.00
589.70	4924.00
590.15	5024.00
590.60	5103.00
591.05	5176.00
591.50	5201.00
591.96	5117.00
592.41	5197.00
592.86	5154.00
593.31	5191.00
593.76	5212.00
594.21	5169.00
594.66	5183.00
595.12	5096.00
595.57	5178.00
596.02	5244.00
596.47	5188.00
596.92	5185.00
597.37	5199.00
597.82	5103.00
598.28	5177.00
598.73	5206.00
599.18	5223.00
599.63	5145.00
600.08	5144.00
600.53	5198.00
600.98	5187.00
601.43	5231.00
601.88	5204.00
602.34	5216.00
602.79	5208.00
603.24	5237.00
603.69	5236.00
604.14	5283.00
604.59	5243.00
605.04	5288.00
605.49	5236.00
605.94	5311.00
606.39	5322.00
606.84	5215.00
607.30	5271.00
607.75	5293.00
608.20	5206.00
608.65	5198.00
609.10	5238.00
609.55	5269.00
610.00	5212.00
610.45	5231.00
610.90	5268.00
611.35	5275.00
611.80	5230.00
612.25	5251.00
612.70	5260.00
613.15	5231.00
613.60	5208.00
614.05	5205.00
614.50	5227.00
614.95	5227.00
615.40	5261.00
615.85	5181.00
616.30	5183.00
616.75	5157.00
617.20	5115.00
617.65	5233.00
618.10	5306.00
618.55	5275.00
619.00	5250.00
619.45	5295.00
619.90	5282.00
620.35	5270.00
620.80	5207.00
621.25	5234.00
621.70	5263.00
622.15	5276.00
622.60	5265.00
623.05	5261.00
623.50	5226.00
623.95	5166.00
624.40	5269.00
624.85	5241.00
625.30	5159.00
625.75	5182.00
626.20	5147.00
626.65	5156.00
627.10	5239.00
627.55	5152.00
627.99	5079.00
628.44	5135.00
628.89	5129.00
629.34	5155.00
629.79	5167.00
630.24	5109.00
630.69	5201.00
631.14	5182.00
631.59	5171.00
632.04	5215.00
632.49	5205.00
632.94	5247.00
633.38	5266.00
633.83	5296.00
634.28	5210.00
634.73	5254.00
635.18	5210.00
635.63	5277.00
636.08	5239.00
636.53	5231.00
636.97	5265.00
637.42	5283.00
637.87	5295.00
638.32	5366.00
638.77	5309.00
639.22	5300.00
639.67	5261.00
640.11	5286.00
640.56	5254.00
641.01	5246.00
641.46	5258.00
641.91	5285.00
642.36	5279.00
642.81	5267.00
643.25	5316.00
643.70	5281.00
644.15	5307.00
644.60	5301.00
645.05	5294.00
645.49	5306.00
645.94	5236.00
646.39	5234.00
646.84	5206.00
647.29	5183.00
647.73	5235.00
648.18	5187.00
648.63	5191.00
649.08	5241.00
649.53	5149.00
649.97	5181.00
650.42	5223.00
650.87	5292.00
651.32	5284.00
651.77	5250.00
652.21	5234.00
652.66	5233.00
653.11	5241.00
653.56	5287.00
654.00	5258.00
654.45	5302.00
654.90	5190.00
655.35	5083.00
655.79	4975.00
656.24	4880.00
656.69	4867.00
657.14	4946.00
657.58	5129.00
658.03	5214.00
658.48	5198.00
658.92	5222.00
659.37	5259.00
659.82	5283.00
660.27	5266.00
660.71	5298.00
661.16	5306.00
661.61	5307.00
662.05	5321.00
662.50	5294.00
662.95	5299.00
663.39	5270.00
663.84	5263.00
664.29	5285.00
664.74	5308.00
665.18	5293.00
665.63	5326.00
666.08	5266.00
666.52	5275.00
666.97	5282.00
667.42	5324.00
667.86	5340.00
668.31	5303.00
668.76	5356.00
669.20	5342.00
669.65	5287.00
670.09	5290.00
670.54	5323.00
670.99	5261.00
671.43	5249.00
671.88	5246.00
672.33	5205.00
672.77	5264.00
673.22	5277.00
673.66	5242.00
674.11	5298.00
674.56	5293.00
675.00	5282.00
675.45	5319.00
675.90	5254.00
676.34	5192.00
676.79	5230.00
677.23	5252.00
677.68	5202.00
678.12	5234.00
678.57	5243.00
679.02	5253.00
679.46	5272.00
679.91	5237.00
680.35	5277.00
680.80	5260.00
681.25	5250.00
681.69	5313.00
682.14	5259.00
682.58	5212.00
683.03	5212.00
683.47	5235.00
683.92	5141.00
684.36	5175.00
684.81	5205.00
685.25	5163.00
685.70	5169.00
686.15	5106.00
686.59	4887.00
687.04	4561.00
687.48	4417.00
687.93	4493.00
688.37	4642.00
688.82	4740.00
689.26	4784.00
689.71	4708.00
690.15	4798.00
690.60	4822.00
691.04	4919.00
691.49	4921.00
691.93	5000.00
692.38	4971.00
692.82	4988.00
693.27	4955.00
693.71	4947.00
694.16	4890.00
694.60	4941.00
695.04	4881.00
695.49	4911.00
695.93	4942.00
696.38	4982.00
696.82	5095.00
697.27	5078.00
697.71	5066.00
698.16	5012.00
698.60	5006.00
699.04	4937.00
699.49	4958.00
699.93	4951.00
700.38	4975.00
700.82	4967.00
701.27	4947.00
701.71	4918.00
702.15	4907.00
702.60	4936.00
703.04	4962.00
703.49	5007.00
703.93	4968.00
704.37	5016.00
704.82	5028.00
705.26	5024.00
705.71	5031.00
706.15	5044.00
706.59	4975.00
707.04	4990.00
707.48	4991.00
707.93	5056.00
708.37	5030.00
708.81	5023.00
709.26	5015.00
709.70	5048.00
710.14	4993.00
710.59	5053.00
711.03	5058.00
711.47	5033.00
711.92	4994.00
712.36	5024.00
712.80	5001.00
713.25	5033.00
713.69	4965.00
714.13	5032.00
714.58	4961.00
715.02	4934.00
715.46	4889.00
715.91	4945.00
716.35	4840.00
716.79	4624.00
717.24	4547.00
717.68	4405.00
718.12	4386.00
718.57	4319.00
719.01	4334.00
719.45	4202.00
719.89	4300.00
720.34	4291.00
720.78	4365.00
721.22	4534.00
721.66	4664.00
722.11	4713.00
722.55	4683.00
722.99	4652.00
723.44	4461.00
723.88	4437.00
724.32	4409.00
724.76	4445.00
725.21	4399.00
725.65	4447.00
726.09	4437.00
726.53	4477.00
726.97	4514.00
727.42	4491.00
727.86	4425.00
728.30	4477.00
728.74	4495.00
729.19	4389.00
729.63	4456.00
730.07	4513.00
730.51	4479.00
730.95	4545.00
731.40	4532.00
731.84	4608.00
732.28	4634.00
732.72	4691.00
733.16	4682.00
733.61	4738.00
734.05	4807.00
734.49	4780.00
734.93	4751.00
735.37	4757.00
735.81	4798.00
736.26	4702.00
736.70	4740.00
737.14	4767.00
737.58	4711.00
738.02	4757.00
738.46	4757.00
738.90	4656.00
739.35	4714.00
739.79	4709.00
740.23	4757.00
740.67	4747.00
741.11	4771.00
741.55	4698.00
741.99	4731.00
742.44	4756.00
742.88	4780.00
743.32	4757.00
743.76	4800.00
744.20	4770.00
744.64	4720.00
745.08	4787.00
745.52	4787.00
745.96	4773.00
746.40	4791.00
746.84	4825.00
747.29	4805.00
747.73	4850.00
748.17	4776.00
748.61	4816.00
749.05	4824.00
749.49	4813.00
749.93	4810.00
750.37	4782.00
750.81	4851.00
751.25	4859.00
751.69	4820.00
752.13	4747.00
752.57	4822.00
753.01	4772.00
753.45	4762.00
753.89	4786.00
754.33	4779.00
754.77	4819.00
755.21	4815.00
755.65	4843.00
756.09	4806.00
756.53	4759.00
756.97	4752.00
757.41	4773.00
757.85	4732.00
758.29	4725.00
758.73	4715.00
759.17	4466.00
759.61	3892.00
760.05	3347.00
760.49	3005.00
760.93	2931.00
761.37	3105.00
761.81	3498.00
762.25	3632.00
762.69	3478.00
763.13	3344.00
763.57	3366.00
764.01	3444.00
764.45	3571.00
764.89	3710.00
765.33	3809.00
765.77	3979.00
766.21	4100.00
766.65	4273.00
767.09	4377.00
767.53	4449.00
767.96	4522.00
768.40	4572.00
768.84	4596.00
769.28	4620.00
769.72	4595.00
770.16	4687.00
770.60	4670.00
771.04	4672.00
771.48	4711.00
771.92	4674.00
772.35	4692.00
772.79	4718.00
773.23	4688.00
773.67	4635.00
774.11	4656.00
774.55	4601.00
774.99	4596.00
775.43	4609.00
775.86	4645.00
776.30	4604.00
776.74	4703.00
777.18	4626.00
777.62	4683.00
778.06	4671.00
778.50	4662.00
778.93	4615.00
779.37	4596.00
779.81	4600.00
780.25	4605.00
780.69	4617.00
781.12	4549.00
781.56	4651.00
782.00	4625.00
782.44	4607.00
782.88	4603.00
783.32	4620.00
783.75	4608.00
784.19	4589.00
784.63	4626.00
785.07	4615.00
785.50	4580.00
785.94	4548.00
786.38	4530.00
786.82	4546.00
787.26	4553.00
787.69	4552.00
788.13	4525.00
