SpectraSuite Data File
++++++++++++++++++++++++++++++++++++
Date: Thu Aug 05 10:45:30 EEST 2021
User: CanSEE
Dark Spectrum Present: No
Reference Spectrum Present: No
Number of Sampled Component Spectra: 1
Spectrometers: MAYP112785
Integration Time (usec): 10000 (MAYP112785)
Spectra Averaged: 1 (MAYP112785)
Boxcar Smoothing: 0 (MAYP112785)
Correct for Electrical Dark: No (MAYP112785)
Strobe/Lamp Enabled: No (MAYP112785)
Correct for Detector Non-linearity: No (MAYP112785)
Correct for Stray Light: No (MAYP112785)
Number of Pixels in Processed Spectrum: 2068
>>>>>Begin Processed Spectral Data<<<<<
198.35	3483.00
198.82	2487.00
199.30	2590.00
199.77	2574.00
200.24	2595.00
200.71	2598.00
201.18	2609.00
201.65	2610.00
202.13	2606.00
202.60	2605.00
203.07	2612.00
203.54	2609.00
204.01	2602.00
204.48	2605.00
204.96	2598.00
205.43	2601.00
205.90	2604.00
206.37	2604.00
206.84	2599.00
207.31	2602.00
207.78	2609.00
208.26	2604.00
208.73	2606.00
209.20	2606.00
209.67	2608.00
210.14	2607.00
210.61	2605.00
211.08	2605.00
211.56	2612.00
212.03	2603.00
212.50	2608.00
212.97	2600.00
213.44	2605.00
213.91	2606.00
214.38	2602.00
214.85	2605.00
215.33	2613.00
215.80	2600.00
216.27	2605.00
216.74	2605.00
217.21	2605.00
217.68	2612.00
218.15	2606.00
218.62	2608.00
219.09	2599.00
219.57	2614.00
220.04	2610.00
220.51	2603.00
220.98	2610.00
221.45	2609.00
221.92	2604.00
222.39	2613.00
222.86	2606.00
223.33	2606.00
223.80	2609.00
224.27	2605.00
224.74	2607.00
225.22	2599.00
225.69	2605.00
226.16	2611.00
226.63	2611.00
227.10	2607.00
227.57	2608.00
228.04	2604.00
228.51	2603.00
228.98	2612.00
229.45	2605.00
229.92	2600.00
230.39	2610.00
230.86	2603.00
231.33	2601.00
231.80	2604.00
232.27	2602.00
232.75	2608.00
233.22	2604.00
233.69	2605.00
234.16	2620.00
234.63	2609.00
235.10	2598.00
235.57	2608.00
236.04	2599.00
236.51	2607.00
236.98	2601.00
237.45	2602.00
237.92	2599.00
238.39	2603.00
238.86	2611.00
239.33	2663.00
239.80	2605.00
240.27	2607.00
240.74	2607.00
241.21	2607.00
241.68	2600.00
242.15	2612.00
242.62	2610.00
243.09	2608.00
243.56	2603.00
244.03	2612.00
244.50	2614.00
244.97	2611.00
245.44	2631.00
245.91	2601.00
246.38	2602.00
246.85	2608.00
247.32	2607.00
247.79	2609.00
248.26	2607.00
248.73	2610.00
249.20	2607.00
249.67	2606.00
250.14	2607.00
250.61	2609.00
251.08	2613.00
251.55	2606.00
252.02	2607.00
252.49	2604.00
252.96	2603.00
253.43	2606.00
253.90	2611.00
254.37	2604.00
254.84	2614.00
255.31	2595.00
255.77	2604.00
256.24	2607.00
256.71	2606.00
257.18	2613.00
257.65	2608.00
258.12	2607.00
258.59	2607.00
259.06	2612.00
259.53	2612.00
260.00	2608.00
260.47	2613.00
260.94	2602.00
261.41	2605.00
261.88	2601.00
262.35	2616.00
262.81	2612.00
263.28	2601.00
263.75	2607.00
264.22	2612.00
264.69	2604.00
265.16	2622.00
265.63	2606.00
266.10	2608.00
266.57	2602.00
267.04	2612.00
267.51	2612.00
267.97	2606.00
268.44	2601.00
268.91	2609.00
269.38	2609.00
269.85	2606.00
270.32	2608.00
270.79	2601.00
271.26	2606.00
271.73	2606.00
272.19	2610.00
272.66	2606.00
273.13	2598.00
273.60	2605.00
274.07	2605.00
274.54	2606.00
275.01	2600.00
275.48	2603.00
275.94	2609.00
276.41	2612.00
276.88	2608.00
277.35	2605.00
277.82	2607.00
278.29	2613.00
278.76	2603.00
279.22	2609.00
279.69	2610.00
280.16	2604.00
280.63	2614.00
281.10	2612.00
281.57	2612.00
282.04	2617.00
282.50	2600.00
282.97	2607.00
283.44	2606.00
283.91	2607.00
284.38	2605.00
284.85	2606.00
285.31	2607.00
285.78	2608.00
286.25	2608.00
286.72	2606.00
287.19	2609.00
287.65	2602.00
288.12	2605.00
288.59	2609.00
289.06	2605.00
289.53	2606.00
289.99	2598.00
290.46	2610.00
290.93	2605.00
291.40	2602.00
291.87	2609.00
292.33	2606.00
292.80	2596.00
293.27	2608.00
293.74	2603.00
294.21	2604.00
294.67	2605.00
295.14	2610.00
295.61	2609.00
296.08	2612.00
296.54	2614.00
297.01	2611.00
297.48	2612.00
297.95	2598.00
298.42	2606.00
298.88	2603.00
299.35	2609.00
299.82	2606.00
300.29	2605.00
300.75	2608.00
301.22	2611.00
301.69	2614.00
302.16	2606.00
302.62	2605.00
303.09	2602.00
303.56	2611.00
304.03	2613.00
304.49	2611.00
304.96	2612.00
305.43	2620.00
305.90	2610.00
306.36	2608.00
306.83	2619.00
307.30	2618.00
307.76	2620.00
308.23	2625.00
308.70	2626.00
309.17	2627.00
309.63	2631.00
310.10	2623.00
310.57	2631.00
311.03	2641.00
311.50	2646.00
311.97	2647.00
312.44	2644.00
312.90	2648.00
313.37	2664.00
313.84	2662.00
314.30	2663.00
314.77	2665.00
315.24	2667.00
315.70	2666.00
316.17	2667.00
316.64	2684.00
317.10	2679.00
317.57	2690.00
318.04	2702.00
318.50	2696.00
318.97	2704.00
319.44	2703.00
319.90	2707.00
320.37	2718.00
320.84	2723.00
321.30	2717.00
321.77	2722.00
322.24	2717.00
322.70	2725.00
323.17	2733.00
323.64	2735.00
324.10	2742.00
324.57	2736.00
325.04	2747.00
325.50	2759.00
325.97	2788.00
326.44	2805.00
326.90	2810.00
327.37	2799.00
327.84	2810.00
328.30	2802.00
328.77	2804.00
329.23	2828.00
329.70	2853.00
330.17	2856.00
330.63	2840.00
331.10	2829.00
331.56	2823.00
332.03	2819.00
332.50	2825.00
332.96	2824.00
333.43	2831.00
333.90	2841.00
334.36	2825.00
334.83	2823.00
335.29	2849.00
335.76	2815.00
336.22	2829.00
336.69	2795.00
337.16	2817.00
337.62	2819.00
338.09	2833.00
338.55	2866.00
339.02	2859.00
339.49	2867.00
339.95	2872.00
340.42	2876.00
340.88	2876.00
341.35	2871.00
341.81	2882.00
342.28	2901.00
342.75	2873.00
343.21	2889.00
343.68	2874.00
344.14	2868.00
344.61	2837.00
345.07	2864.00
345.54	2903.00
346.00	2905.00
346.47	2904.00
346.93	2896.00
347.40	2913.00
347.87	2887.00
348.33	2906.00
348.80	2927.00
349.26	2908.00
349.73	2903.00
350.19	2944.00
350.66	2947.00
351.12	2929.00
351.59	2958.00
352.05	2956.00
352.52	2949.00
352.98	2926.00
353.45	2956.00
353.91	2984.00
354.38	2979.00
354.84	2993.00
355.31	2998.00
355.77	2971.00
356.24	2937.00
356.70	2951.00
357.17	2905.00
357.63	2912.00
358.10	2921.00
358.56	2873.00
359.03	2901.00
359.49	2959.00
359.96	3012.00
360.42	3011.00
360.89	2952.00
361.35	2948.00
361.82	2956.00
362.28	2951.00
362.75	2989.00
363.21	3015.00
363.67	3008.00
364.14	3041.00
364.60	3014.00
365.07	3039.00
365.53	3051.00
366.00	3101.00
366.46	3086.00
366.93	3086.00
367.39	3098.00
367.86	3057.00
368.32	3053.00
368.78	3077.00
369.25	3097.00
369.71	3110.00
370.18	3103.00
370.64	3118.00
371.11	3083.00
371.57	3064.00
372.03	3099.00
372.50	3039.00
372.96	3035.00
373.43	3016.00
373.89	3011.00
374.35	3053.00
374.82	3037.00
375.28	3057.00
375.75	3117.00
376.21	3103.00
376.67	3115.00
377.14	3146.00
377.60	3184.00
378.07	3230.00
378.53	3238.00
378.99	3168.00
379.46	3141.00
379.92	3116.00
380.39	3150.00
380.85	3153.00
381.31	3184.00
381.78	3110.00
382.24	3048.00
382.70	3030.00
383.17	2999.00
383.63	3012.00
384.09	3052.00
384.56	3085.00
385.02	3132.00
385.48	3160.00
385.95	3145.00
386.41	3118.00
386.88	3147.00
387.34	3154.00
387.80	3170.00
388.27	3181.00
388.73	3185.00
389.19	3222.00
389.66	3282.00
390.12	3323.00
390.58	3317.00
391.05	3338.00
391.51	3345.00
391.97	3292.00
392.43	3221.00
392.90	3170.00
393.36	3086.00
393.82	3069.00
394.29	3166.00
394.75	3247.00
395.21	3344.00
395.68	3335.00
396.14	3312.00
396.60	3261.00
397.07	3187.00
397.53	3223.00
397.99	3432.00
398.45	3559.00
398.92	3634.00
399.38	3651.00
399.84	3721.00
400.31	3710.00
400.77	3769.00
401.23	3770.00
401.69	3797.00
402.16	3774.00
402.62	3803.00
403.08	3811.00
403.54	3754.00
404.01	3793.00
404.47	3853.00
404.93	3747.00
405.39	3799.00
405.86	3800.00
406.32	3745.00
406.78	3783.00
407.24	3775.00
407.71	3793.00
408.17	3803.00
408.63	3861.00
409.09	3879.00
409.56	3881.00
410.02	3862.00
410.48	3827.00
410.94	3878.00
411.40	3915.00
411.87	3951.00
412.33	3991.00
412.79	3961.00
413.25	3975.00
413.71	3974.00
414.18	4004.00
414.64	3972.00
415.10	3959.00
415.56	4009.00
416.02	3977.00
416.49	4045.00
416.95	4043.00
417.41	4001.00
417.87	3975.00
418.33	3972.00
418.80	4032.00
419.26	4004.00
419.72	4071.00
420.18	4028.00
420.64	4062.00
421.10	4056.00
421.57	4103.00
422.03	4117.00
422.49	4047.00
422.95	4035.00
423.41	4003.00
423.87	4041.00
424.34	4061.00
424.80	4101.00
425.26	4085.00
425.72	4020.00
426.18	4090.00
426.64	4039.00
427.10	4077.00
427.57	4061.00
428.03	4030.00
428.49	4014.00
428.95	3970.00
429.41	3904.00
429.87	3832.00
430.33	3840.00
430.79	3810.00
431.26	3919.00
431.72	4020.00
432.18	4197.00
432.64	4187.00
433.10	4143.00
433.56	4190.00
434.02	4197.00
434.48	4153.00
434.94	4233.00
435.40	4291.00
435.87	4321.00
436.33	4364.00
436.79	4356.00
437.25	4338.00
437.71	4298.00
438.17	4292.00
438.63	4239.00
439.09	4264.00
439.55	4303.00
440.01	4398.00
440.47	4384.00
440.93	4401.00
441.39	4460.00
441.85	4518.00
442.32	4576.00
442.78	4509.00
443.24	4571.00
443.70	4554.00
444.16	4576.00
444.62	4585.00
445.08	4619.00
445.54	4569.00
446.00	4550.00
446.46	4535.00
446.92	4604.00
447.38	4702.00
447.84	4761.00
448.30	4718.00
448.76	4697.00
449.22	4777.00
449.68	4777.00
450.14	4797.00
450.60	4909.00
451.06	4805.00
451.52	4798.00
451.98	4822.00
452.44	4730.00
452.90	4723.00
453.36	4726.00
453.82	4745.00
454.28	4782.00
454.74	4863.00
455.20	4844.00
455.66	4814.00
456.12	4870.00
456.58	4961.00
457.04	4923.00
457.50	4887.00
457.96	4928.00
458.42	4890.00
458.88	4855.00
459.34	4892.00
459.80	4906.00
460.26	4909.00
460.72	4961.00
461.18	4951.00
461.64	5028.00
462.10	5021.00
462.55	5076.00
463.01	5039.00
463.47	5009.00
463.93	4971.00
464.39	5002.00
464.85	4969.00
465.31	5004.00
465.77	5020.00
466.23	4921.00
466.69	4990.00
467.15	4988.00
467.61	5015.00
468.07	5032.00
468.52	5070.00
468.98	5036.00
469.44	5069.00
469.90	5011.00
470.36	5044.00
470.82	5046.00
471.28	5053.00
471.74	5064.00
472.20	5092.00
472.66	5123.00
473.11	5059.00
473.57	5178.00
474.03	5083.00
474.49	5137.00
474.95	5152.00
475.41	5160.00
475.87	5107.00
476.33	5120.00
476.78	5124.00
477.24	5167.00
477.70	5210.00
478.16	5166.00
478.62	5224.00
479.08	5209.00
479.54	5245.00
479.99	5228.00
480.45	5255.00
480.91	5210.00
481.37	5249.00
481.83	5353.00
482.29	5310.00
482.74	5295.00
483.20	5253.00
483.66	5248.00
484.12	5242.00
484.58	5189.00
485.04	5127.00
485.49	4982.00
485.95	4971.00
486.41	4890.00
486.87	4982.00
487.33	5050.00
487.78	5105.00
488.24	5147.00
488.70	5222.00
489.16	5209.00
489.62	5233.00
490.07	5247.00
490.53	5339.00
490.99	5260.00
491.45	5262.00
491.90	5243.00
492.36	5218.00
492.82	5273.00
493.28	5253.00
493.74	5322.00
494.19	5330.00
494.65	5402.00
495.11	5409.00
495.57	5389.00
496.02	5313.00
496.48	5377.00
496.94	5358.00
497.40	5386.00
497.85	5374.00
498.31	5359.00
498.77	5349.00
499.23	5395.00
499.68	5300.00
500.14	5269.00
500.60	5250.00
501.06	5248.00
501.51	5266.00
501.97	5219.00
502.43	5297.00
502.88	5326.00
503.34	5247.00
503.80	5316.00
504.26	5282.00
504.71	5353.00
505.17	5413.00
505.63	5331.00
506.08	5433.00
506.54	5419.00
507.00	5385.00
507.45	5384.00
507.91	5365.00
508.37	5387.00
508.82	5433.00
509.28	5442.00
509.74	5460.00
510.19	5453.00
510.65	5486.00
511.11	5454.00
511.56	5474.00
512.02	5481.00
512.48	5496.00
512.93	5451.00
513.39	5389.00
513.85	5363.00
514.30	5405.00
514.76	5425.00
515.22	5470.00
515.67	5395.00
516.13	5278.00
516.59	5203.00
517.04	5189.00
517.50	5123.00
517.95	5174.00
518.41	5215.00
518.87	5317.00
519.32	5326.00
519.78	5370.00
520.24	5411.00
520.69	5492.00
521.15	5516.00
521.60	5499.00
522.06	5491.00
522.52	5456.00
522.97	5444.00
523.43	5563.00
523.88	5588.00
524.34	5613.00
524.80	5601.00
525.25	5587.00
525.71	5513.00
526.16	5437.00
526.62	5437.00
527.07	5383.00
527.53	5426.00
527.99	5533.00
528.44	5631.00
528.90	5645.00
529.35	5632.00
529.81	5715.00
530.26	5665.00
530.72	5661.00
531.17	5741.00
531.63	5673.00
532.09	5669.00
532.54	5567.00
533.00	5590.00
533.45	5647.00
533.91	5674.00
534.36	5678.00
534.82	5694.00
535.27	5753.00
535.73	5795.00
536.18	5706.00
536.64	5725.00
537.09	5653.00
537.55	5646.00
538.00	5660.00
538.46	5703.00
538.91	5679.00
539.37	5646.00
539.82	5574.00
540.28	5601.00
540.73	5588.00
541.19	5567.00
541.64	5631.00
542.10	5609.00
542.55	5679.00
543.01	5704.00
543.46	5698.00
543.92	5695.00
544.37	5712.00
544.83	5740.00
545.28	5695.00
545.74	5727.00
546.19	5754.00
546.64	5731.00
547.10	5755.00
547.55	5715.00
548.01	5712.00
548.46	5742.00
548.92	5748.00
549.37	5772.00
549.83	5779.00
550.28	5759.00
550.73	5801.00
551.19	5755.00
551.64	5817.00
552.10	5754.00
552.55	5811.00
553.00	5790.00
553.46	5804.00
553.91	5741.00
554.37	5857.00
554.82	5836.00
555.28	5842.00
555.73	5881.00
556.18	5808.00
556.64	5720.00
557.09	5761.00
557.54	5747.00
558.00	5753.00
558.45	5705.00
558.91	5724.00
559.36	5725.00
559.81	5694.00
560.27	5706.00
560.72	5796.00
561.17	5747.00
561.63	5771.00
562.08	5729.00
562.54	5749.00
562.99	5828.00
563.44	5766.00
563.90	5749.00
564.35	5831.00
564.80	5754.00
565.26	5813.00
565.71	5701.00
566.16	5741.00
566.62	5713.00
567.07	5749.00
567.52	5808.00
567.98	5812.00
568.43	5762.00
568.88	5742.00
569.34	5762.00
569.79	5734.00
570.24	5725.00
570.69	5734.00
571.15	5700.00
571.60	5648.00
572.05	5768.00
572.51	5807.00
572.96	5815.00
573.41	5857.00
573.86	5825.00
574.32	5860.00
574.77	5740.00
575.22	5775.00
575.68	5744.00
576.13	5729.00
576.58	5808.00
577.03	5764.00
577.49	5817.00
577.94	5771.00
578.39	5694.00
578.84	5745.00
579.30	5811.00
579.75	5834.00
580.20	5827.00
580.65	5770.00
581.11	5843.00
581.56	5861.00
582.01	5855.00
582.46	5890.00
582.92	5904.00
583.37	5930.00
583.82	5916.00
584.27	5983.00
584.72	5909.00
585.18	5879.00
585.63	5800.00
586.08	5898.00
586.53	5862.00
586.98	5847.00
587.44	5804.00
587.89	5818.00
588.34	5768.00
588.79	5703.00
589.24	5565.00
589.70	5499.00
590.15	5613.00
590.60	5739.00
591.05	5703.00
591.50	5777.00
591.96	5712.00
592.41	5737.00
592.86	5831.00
593.31	5765.00
593.76	5792.00
594.21	5766.00
594.66	5692.00
595.12	5732.00
595.57	5767.00
596.02	5818.00
596.47	5812.00
596.92	5851.00
597.37	5838.00
597.82	5774.00
598.28	5762.00
598.73	5792.00
599.18	5785.00
599.63	5835.00
600.08	5816.00
600.53	5838.00
600.98	5851.00
601.43	5811.00
601.88	5762.00
602.34	5777.00
602.79	5729.00
603.24	5888.00
603.69	5886.00
604.14	5884.00
604.59	5888.00
605.04	5904.00
605.49	5911.00
605.94	5920.00
606.39	5945.00
606.84	5956.00
607.30	5866.00
607.75	5911.00
608.20	5802.00
608.65	5831.00
609.10	5807.00
609.55	5820.00
610.00	5844.00
610.45	5869.00
610.90	5872.00
611.35	5867.00
611.80	5909.00
612.25	5788.00
612.70	5835.00
613.15	5868.00
613.60	5826.00
614.05	5800.00
614.50	5883.00
614.95	5830.00
615.40	5812.00
615.85	5757.00
616.30	5740.00
616.75	5730.00
617.20	5754.00
617.65	5770.00
618.10	5861.00
618.55	5878.00
619.00	5898.00
619.45	5914.00
619.90	5903.00
620.35	5914.00
620.80	5882.00
621.25	5893.00
621.70	5881.00
622.15	5876.00
622.60	5824.00
623.05	5826.00
623.50	5806.00
623.95	5846.00
624.40	5712.00
624.85	5759.00
625.30	5721.00
625.75	5796.00
626.20	5819.00
626.65	5822.00
627.10	5781.00
627.55	5797.00
627.99	5743.00
628.44	5775.00
628.89	5771.00
629.34	5756.00
629.79	5729.00
630.24	5722.00
630.69	5782.00
631.14	5782.00
631.59	5781.00
632.04	5774.00
632.49	5747.00
632.94	5802.00
633.38	5794.00
633.83	5874.00
634.28	5794.00
634.73	5768.00
635.18	5895.00
635.63	5931.00
636.08	5857.00
636.53	5898.00
636.97	5931.00
637.42	5905.00
637.87	5899.00
638.32	6024.00
638.77	5938.00
639.22	5967.00
639.67	5899.00
640.11	5882.00
640.56	5904.00
641.01	5853.00
641.46	5893.00
641.91	5853.00
642.36	5929.00
642.81	5884.00
643.25	5944.00
643.70	5890.00
644.15	5922.00
644.60	5890.00
645.05	5944.00
645.49	5943.00
645.94	5892.00
646.39	5855.00
646.84	5855.00
647.29	5828.00
647.73	5876.00
648.18	5812.00
648.63	5786.00
649.08	5795.00
649.53	5729.00
649.97	5755.00
650.42	5821.00
650.87	5878.00
651.32	5799.00
651.77	5832.00
652.21	5751.00
652.66	5853.00
653.11	5904.00
653.56	5880.00
654.00	5858.00
654.45	5805.00
654.90	5809.00
655.35	5743.00
655.79	5550.00
656.24	5354.00
656.69	5401.00
657.14	5522.00
657.58	5590.00
658.03	5808.00
658.48	5893.00
658.92	5869.00
659.37	5833.00
659.82	5871.00
660.27	5823.00
660.71	5885.00
661.16	5934.00
661.61	5993.00
662.05	5931.00
662.50	5920.00
662.95	5888.00
663.39	5875.00
663.84	5870.00
664.29	5857.00
664.74	5919.00
665.18	5863.00
665.63	5883.00
666.08	5926.00
666.52	5879.00
666.97	5886.00
667.42	5856.00
667.86	5939.00
668.31	5941.00
668.76	5886.00
669.20	5939.00
669.65	5906.00
670.09	5849.00
670.54	5864.00
670.99	5858.00
671.43	5824.00
671.88	5805.00
672.33	5859.00
672.77	5891.00
673.22	5809.00
673.66	5897.00
674.11	5927.00
674.56	5811.00
675.00	5845.00
675.45	5833.00
675.90	5865.00
676.34	5878.00
676.79	5853.00
677.23	5845.00
677.68	5880.00
678.12	5900.00
678.57	5818.00
679.02	5829.00
679.46	5833.00
679.91	5869.00
680.35	5849.00
680.80	5848.00
681.25	5813.00
681.69	5744.00
682.14	5835.00
682.58	5892.00
683.03	5781.00
683.47	5872.00
683.92	5759.00
684.36	5792.00
684.81	5736.00
685.25	5731.00
685.70	5715.00
686.15	5628.00
686.59	5431.00
687.04	5097.00
687.48	4901.00
687.93	4944.00
688.37	5229.00
688.82	5266.00
689.26	5229.00
689.71	5228.00
690.15	5301.00
690.60	5341.00
691.04	5384.00
691.49	5460.00
691.93	5514.00
692.38	5532.00
692.82	5481.00
693.27	5453.00
693.71	5478.00
694.16	5446.00
694.60	5393.00
695.04	5478.00
695.49	5498.00
695.93	5522.00
696.38	5555.00
696.82	5623.00
697.27	5607.00
697.71	5650.00
698.16	5573.00
698.60	5576.00
699.04	5483.00
699.49	5512.00
699.93	5483.00
700.38	5429.00
700.82	5474.00
701.27	5471.00
701.71	5490.00
702.15	5513.00
702.60	5503.00
703.04	5481.00
703.49	5561.00
703.93	5486.00
704.37	5521.00
704.82	5530.00
705.26	5580.00
705.71	5550.00
706.15	5599.00
706.59	5534.00
707.04	5535.00
707.48	5570.00
707.93	5550.00
708.37	5596.00
708.81	5569.00
709.26	5521.00
709.70	5581.00
710.14	5587.00
710.59	5561.00
711.03	5619.00
711.47	5619.00
711.92	5555.00
712.36	5538.00
712.80	5586.00
713.25	5538.00
713.69	5528.00
714.13	5538.00
714.58	5525.00
715.02	5536.00
715.46	5437.00
715.91	5415.00
716.35	5337.00
716.79	5158.00
717.24	5020.00
717.68	4869.00
718.12	4854.00
718.57	4785.00
719.01	4719.00
719.45	4726.00
719.89	4732.00
720.34	4717.00
720.78	4772.00
721.22	4974.00
721.66	5176.00
722.11	5194.00
722.55	5135.00
722.99	5071.00
723.44	4879.00
723.88	4880.00
724.32	4857.00
724.76	4872.00
725.21	4797.00
725.65	4884.00
726.09	4927.00
726.53	4875.00
726.97	4919.00
727.42	4876.00
727.86	4825.00
728.30	4850.00
728.74	4962.00
729.19	4858.00
729.63	4844.00
730.07	4914.00
730.51	4881.00
730.95	4909.00
731.40	4930.00
731.84	5076.00
732.28	5088.00
732.72	5119.00
733.16	5131.00
733.61	5176.00
734.05	5250.00
734.49	5196.00
734.93	5216.00
735.37	5243.00
735.81	5248.00
736.26	5161.00
736.70	5173.00
737.14	5172.00
737.58	5216.00
738.02	5254.00
738.46	5216.00
738.90	5082.00
739.35	5174.00
739.79	5229.00
740.23	5183.00
740.67	5189.00
741.11	5198.00
741.55	5186.00
741.99	5192.00
742.44	5217.00
742.88	5237.00
743.32	5272.00
743.76	5261.00
744.20	5233.00
744.64	5206.00
745.08	5229.00
745.52	5274.00
745.96	5361.00
746.40	5302.00
746.84	5295.00
747.29	5306.00
747.73	5287.00
748.17	5297.00
748.61	5260.00
749.05	5236.00
749.49	5197.00
749.93	5270.00
750.37	5290.00
750.81	5263.00
751.25	5298.00
751.69	5228.00
752.13	5246.00
752.57	5279.00
753.01	5280.00
753.45	5238.00
753.89	5244.00
754.33	5268.00
754.77	5302.00
755.21	5281.00
755.65	5278.00
756.09	5270.00
756.53	5259.00
756.97	5296.00
757.41	5225.00
757.85	5275.00
758.29	5205.00
758.73	5109.00
759.17	4999.00
759.61	4394.00
760.05	3590.00
760.49	3137.00
760.93	3042.00
761.37	3284.00
761.81	3738.00
762.25	3979.00
762.69	3795.00
763.13	3606.00
763.57	3639.00
764.01	3694.00
764.45	3875.00
764.89	4006.00
765.33	4209.00
765.77	4361.00
766.21	4464.00
766.65	4668.00
767.09	4788.00
767.53	4924.00
767.96	4951.00
768.40	5037.00
768.84	5060.00
769.28	5056.00
769.72	5116.00
770.16	5110.00
770.60	5103.00
771.04	5131.00
771.48	5164.00
771.92	5147.00
772.35	5148.00
772.79	5177.00
773.23	5148.00
773.67	5170.00
774.11	5107.00
774.55	5152.00
774.99	5089.00
775.43	5050.00
775.86	5098.00
776.30	5144.00
776.74	5168.00
777.18	5157.00
777.62	5165.00
778.06	5097.00
778.50	5079.00
778.93	5068.00
779.37	5068.00
779.81	5017.00
780.25	5004.00
780.69	5038.00
781.12	5057.00
781.56	5016.00
782.00	5075.00
782.44	5080.00
782.88	5132.00
783.32	5064.00
783.75	5041.00
784.19	4999.00
784.63	5012.00
785.07	4962.00
785.50	4996.00
785.94	4977.00
786.38	5000.00
786.82	4960.00
787.26	4946.00
787.69	4991.00
788.13	4963.00
