SpectraSuite Data File
++++++++++++++++++++++++++++++++++++
Date: Thu Aug 05 10:45:31 EEST 2021
User: CanSEE
Dark Spectrum Present: No
Reference Spectrum Present: No
Number of Sampled Component Spectra: 1
Spectrometers: MAYP112785
Integration Time (usec): 10000 (MAYP112785)
Spectra Averaged: 1 (MAYP112785)
Boxcar Smoothing: 0 (MAYP112785)
Correct for Electrical Dark: No (MAYP112785)
Strobe/Lamp Enabled: No (MAYP112785)
Correct for Detector Non-linearity: No (MAYP112785)
Correct for Stray Light: No (MAYP112785)
Number of Pixels in Processed Spectrum: 2068
>>>>>Begin Processed Spectral Data<<<<<
198.35	3481.00
198.82	2490.00
199.30	2594.00
199.77	2576.00
200.24	2607.00
200.71	2600.00
201.18	2614.00
201.65	2607.00
202.13	2612.00
202.60	2610.00
203.07	2615.00
203.54	2614.00
204.01	2606.00
204.48	2609.00
204.96	2597.00
205.43	2603.00
205.90	2608.00
206.37	2601.00
206.84	2603.00
207.31	2598.00
207.78	2604.00
208.26	2607.00
208.73	2610.00
209.20	2608.00
209.67	2610.00
210.14	2610.00
210.61	2607.00
211.08	2604.00
211.56	2607.00
212.03	2602.00
212.50	2603.00
212.97	2607.00
213.44	2602.00
213.91	2598.00
214.38	2609.00
214.85	2604.00
215.33	2599.00
215.80	2602.00
216.27	2605.00
216.74	2614.00
217.21	2606.00
217.68	2609.00
218.15	2601.00
218.62	2615.00
219.09	2605.00
219.57	2612.00
220.04	2616.00
220.51	2600.00
220.98	2613.00
221.45	2606.00
221.92	2605.00
222.39	2613.00
222.86	2608.00
223.33	2606.00
223.80	2605.00
224.27	2607.00
224.74	2607.00
225.22	2605.00
225.69	2604.00
226.16	2604.00
226.63	2608.00
227.10	2613.00
227.57	2603.00
228.04	2609.00
228.51	2605.00
228.98	2612.00
229.45	2605.00
229.92	2609.00
230.39	2614.00
230.86	2601.00
231.33	2613.00
231.80	2612.00
232.27	2609.00
232.75	2602.00
233.22	2600.00
233.69	2609.00
234.16	2604.00
234.63	2611.00
235.10	2611.00
235.57	2604.00
236.04	2605.00
236.51	2608.00
236.98	2607.00
237.45	2609.00
237.92	2611.00
238.39	2609.00
238.86	2610.00
239.33	2666.00
239.80	2605.00
240.27	2602.00
240.74	2612.00
241.21	2610.00
241.68	2609.00
242.15	2604.00
242.62	2612.00
243.09	2609.00
243.56	2607.00
244.03	2605.00
244.50	2611.00
244.97	2610.00
245.44	2627.00
245.91	2600.00
246.38	2611.00
246.85	2605.00
247.32	2610.00
247.79	2601.00
248.26	2611.00
248.73	2603.00
249.20	2605.00
249.67	2609.00
250.14	2613.00
250.61	2612.00
251.08	2601.00
251.55	2613.00
252.02	2605.00
252.49	2606.00
252.96	2607.00
253.43	2599.00
253.90	2608.00
254.37	2612.00
254.84	2609.00
255.31	2598.00
255.77	2607.00
256.24	2606.00
256.71	2610.00
257.18	2613.00
257.65	2612.00
258.12	2607.00
258.59	2601.00
259.06	2606.00
259.53	2607.00
260.00	2615.00
260.47	2605.00
260.94	2603.00
261.41	2619.00
261.88	2611.00
262.35	2614.00
262.81	2605.00
263.28	2607.00
263.75	2612.00
264.22	2603.00
264.69	2616.00
265.16	2613.00
265.63	2608.00
266.10	2610.00
266.57	2607.00
267.04	2614.00
267.51	2608.00
267.97	2601.00
268.44	2607.00
268.91	2610.00
269.38	2606.00
269.85	2610.00
270.32	2611.00
270.79	2609.00
271.26	2607.00
271.73	2610.00
272.19	2607.00
272.66	2605.00
273.13	2617.00
273.60	2617.00
274.07	2605.00
274.54	2611.00
275.01	2606.00
275.48	2615.00
275.94	2614.00
276.41	2615.00
276.88	2601.00
277.35	2615.00
277.82	2608.00
278.29	2605.00
278.76	2608.00
279.22	2605.00
279.69	2607.00
280.16	2621.00
280.63	2609.00
281.10	2608.00
281.57	2608.00
282.04	2607.00
282.50	2608.00
282.97	2608.00
283.44	2606.00
283.91	2608.00
284.38	2609.00
284.85	2607.00
285.31	2605.00
285.78	2605.00
286.25	2608.00
286.72	2597.00
287.19	2613.00
287.65	2611.00
288.12	2605.00
288.59	2617.00
289.06	2608.00
289.53	2605.00
289.99	2605.00
290.46	2608.00
290.93	2604.00
291.40	2601.00
291.87	2609.00
292.33	2609.00
292.80	2609.00
293.27	2606.00
293.74	2606.00
294.21	2607.00
294.67	2596.00
295.14	2610.00
295.61	2609.00
296.08	2608.00
296.54	2607.00
297.01	2608.00
297.48	2612.00
297.95	2606.00
298.42	2610.00
298.88	2611.00
299.35	2613.00
299.82	2608.00
300.29	2605.00
300.75	2608.00
301.22	2608.00
301.69	2619.00
302.16	2606.00
302.62	2605.00
303.09	2611.00
303.56	2610.00
304.03	2609.00
304.49	2613.00
304.96	2615.00
305.43	2620.00
305.90	2618.00
306.36	2610.00
306.83	2620.00
307.30	2620.00
307.76	2617.00
308.23	2626.00
308.70	2624.00
309.17	2629.00
309.63	2630.00
310.10	2629.00
310.57	2635.00
311.03	2641.00
311.50	2641.00
311.97	2647.00
312.44	2651.00
312.90	2642.00
313.37	2663.00
313.84	2659.00
314.30	2657.00
314.77	2655.00
315.24	2661.00
315.70	2668.00
316.17	2673.00
316.64	2689.00
317.10	2681.00
317.57	2690.00
318.04	2697.00
318.50	2684.00
318.97	2688.00
319.44	2700.00
319.90	2718.00
320.37	2723.00
320.84	2727.00
321.30	2729.00
321.77	2707.00
322.24	2723.00
322.70	2718.00
323.17	2728.00
323.64	2718.00
324.10	2731.00
324.57	2746.00
325.04	2764.00
325.50	2774.00
325.97	2788.00
326.44	2797.00
326.90	2804.00
327.37	2804.00
327.84	2789.00
328.30	2798.00
328.77	2802.00
329.23	2836.00
329.70	2847.00
330.17	2866.00
330.63	2828.00
331.10	2822.00
331.56	2827.00
332.03	2820.00
332.50	2826.00
332.96	2833.00
333.43	2835.00
333.90	2825.00
334.36	2841.00
334.83	2820.00
335.29	2855.00
335.76	2838.00
336.22	2835.00
336.69	2798.00
337.16	2829.00
337.62	2832.00
338.09	2851.00
338.55	2852.00
339.02	2874.00
339.49	2881.00
339.95	2869.00
340.42	2891.00
340.88	2883.00
341.35	2876.00
341.81	2858.00
342.28	2898.00
342.75	2894.00
343.21	2879.00
343.68	2886.00
344.14	2871.00
344.61	2849.00
345.07	2860.00
345.54	2881.00
346.00	2881.00
346.47	2873.00
346.93	2901.00
347.40	2930.00
347.87	2893.00
348.33	2898.00
348.80	2905.00
349.26	2908.00
349.73	2894.00
350.19	2920.00
350.66	2954.00
351.12	2952.00
351.59	2929.00
352.05	2950.00
352.52	2949.00
352.98	2937.00
353.45	2953.00
353.91	2990.00
354.38	2978.00
354.84	3015.00
355.31	2998.00
355.77	2985.00
356.24	2944.00
356.70	2953.00
357.17	2915.00
357.63	2906.00
358.10	2905.00
358.56	2885.00
359.03	2910.00
359.49	2940.00
359.96	2974.00
360.42	2973.00
360.89	2983.00
361.35	2939.00
361.82	2954.00
362.28	2978.00
362.75	2986.00
363.21	2995.00
363.67	3017.00
364.14	3012.00
364.60	3023.00
365.07	3023.00
365.53	3066.00
366.00	3071.00
366.46	3089.00
366.93	3114.00
367.39	3084.00
367.86	3067.00
368.32	3059.00
368.78	3063.00
369.25	3085.00
369.71	3127.00
370.18	3107.00
370.64	3101.00
371.11	3084.00
371.57	3099.00
372.03	3078.00
372.50	3054.00
372.96	3034.00
373.43	3031.00
373.89	2988.00
374.35	3028.00
374.82	3058.00
375.28	3018.00
375.75	3102.00
376.21	3127.00
376.67	3134.00
377.14	3155.00
377.60	3218.00
378.07	3230.00
378.53	3228.00
378.99	3195.00
379.46	3176.00
379.92	3137.00
380.39	3123.00
380.85	3181.00
381.31	3188.00
381.78	3109.00
382.24	3048.00
382.70	3038.00
383.17	2984.00
383.63	3015.00
384.09	3045.00
384.56	3079.00
385.02	3157.00
385.48	3163.00
385.95	3167.00
386.41	3156.00
386.88	3180.00
387.34	3154.00
387.80	3168.00
388.27	3194.00
388.73	3187.00
389.19	3227.00
389.66	3281.00
390.12	3335.00
390.58	3321.00
391.05	3320.00
391.51	3320.00
391.97	3297.00
392.43	3263.00
392.90	3160.00
393.36	3079.00
393.82	3069.00
394.29	3165.00
394.75	3268.00
395.21	3339.00
395.68	3361.00
396.14	3288.00
396.60	3235.00
397.07	3156.00
397.53	3237.00
397.99	3428.00
398.45	3578.00
398.92	3628.00
399.38	3672.00
399.84	3722.00
400.31	3709.00
400.77	3755.00
401.23	3765.00
401.69	3767.00
402.16	3823.00
402.62	3822.00
403.08	3790.00
403.54	3751.00
404.01	3779.00
404.47	3806.00
404.93	3759.00
405.39	3779.00
405.86	3791.00
406.32	3784.00
406.78	3780.00
407.24	3813.00
407.71	3804.00
408.17	3853.00
408.63	3856.00
409.09	3887.00
409.56	3888.00
410.02	3863.00
410.48	3840.00
410.94	3829.00
411.40	3922.00
411.87	4013.00
412.33	3975.00
412.79	4006.00
413.25	3960.00
413.71	3947.00
414.18	3927.00
414.64	3997.00
415.10	4016.00
415.56	4000.00
416.02	4002.00
416.49	4013.00
416.95	4022.00
417.41	3997.00
417.87	3959.00
418.33	3961.00
418.80	3998.00
419.26	4020.00
419.72	4039.00
420.18	4003.00
420.64	4063.00
421.10	4071.00
421.57	4079.00
422.03	4081.00
422.49	4048.00
422.95	3992.00
423.41	4025.00
423.87	4052.00
424.34	4076.00
424.80	4061.00
425.26	4078.00
425.72	4084.00
426.18	4092.00
426.64	4116.00
427.10	4088.00
427.57	4027.00
428.03	4041.00
428.49	4011.00
428.95	4008.00
429.41	3921.00
429.87	3875.00
430.33	3830.00
430.79	3836.00
431.26	3885.00
431.72	4024.00
432.18	4196.00
432.64	4181.00
433.10	4102.00
433.56	4236.00
434.02	4197.00
434.48	4131.00
434.94	4248.00
435.40	4285.00
435.87	4335.00
436.33	4360.00
436.79	4346.00
437.25	4307.00
437.71	4294.00
438.17	4257.00
438.63	4265.00
439.09	4250.00
439.55	4292.00
440.01	4403.00
440.47	4347.00
440.93	4439.00
441.39	4506.00
441.85	4515.00
442.32	4561.00
442.78	4583.00
443.24	4566.00
443.70	4539.00
444.16	4587.00
444.62	4533.00
445.08	4559.00
445.54	4566.00
446.00	4544.00
446.46	4549.00
446.92	4621.00
447.38	4705.00
447.84	4742.00
448.30	4752.00
448.76	4753.00
449.22	4707.00
449.68	4786.00
450.14	4844.00
450.60	4860.00
451.06	4955.00
451.52	4869.00
451.98	4792.00
452.44	4801.00
452.90	4746.00
453.36	4741.00
453.82	4759.00
454.28	4818.00
454.74	4855.00
455.20	4852.00
455.66	4851.00
456.12	4860.00
456.58	4944.00
457.04	4902.00
457.50	4926.00
457.96	4857.00
458.42	4884.00
458.88	4907.00
459.34	4883.00
459.80	4932.00
460.26	4934.00
460.72	4945.00
461.18	4969.00
461.64	4996.00
462.10	5021.00
462.55	5025.00
463.01	5021.00
463.47	4999.00
463.93	4962.00
464.39	4964.00
464.85	4995.00
465.31	4962.00
465.77	4956.00
466.23	5011.00
466.69	5022.00
467.15	4939.00
467.61	4974.00
468.07	5044.00
468.52	5048.00
468.98	5013.00
469.44	5051.00
469.90	5036.00
470.36	5030.00
470.82	5015.00
471.28	5069.00
471.74	5020.00
472.20	5116.00
472.66	5136.00
473.11	5075.00
473.57	5081.00
474.03	5136.00
474.49	5132.00
474.95	5157.00
475.41	5123.00
475.87	5094.00
476.33	5163.00
476.78	5154.00
477.24	5155.00
477.70	5220.00
478.16	5197.00
478.62	5236.00
479.08	5264.00
479.54	5239.00
479.99	5265.00
480.45	5290.00
480.91	5275.00
481.37	5253.00
481.83	5322.00
482.29	5274.00
482.74	5329.00
483.20	5246.00
483.66	5275.00
484.12	5217.00
484.58	5250.00
485.04	5112.00
485.49	5017.00
485.95	4986.00
486.41	4887.00
486.87	4915.00
487.33	5086.00
487.78	5090.00
488.24	5153.00
488.70	5241.00
489.16	5250.00
489.62	5209.00
490.07	5240.00
490.53	5375.00
490.99	5270.00
491.45	5229.00
491.90	5242.00
492.36	5185.00
492.82	5263.00
493.28	5299.00
493.74	5320.00
494.19	5294.00
494.65	5378.00
495.11	5398.00
495.57	5387.00
496.02	5381.00
496.48	5357.00
496.94	5368.00
497.40	5280.00
497.85	5326.00
498.31	5351.00
498.77	5323.00
499.23	5294.00
499.68	5345.00
500.14	5287.00
500.60	5271.00
501.06	5230.00
501.51	5274.00
501.97	5234.00
502.43	5261.00
502.88	5319.00
503.34	5302.00
503.80	5360.00
504.26	5265.00
504.71	5352.00
505.17	5372.00
505.63	5393.00
506.08	5352.00
506.54	5446.00
507.00	5408.00
507.45	5316.00
507.91	5353.00
508.37	5368.00
508.82	5429.00
509.28	5401.00
509.74	5465.00
510.19	5430.00
510.65	5446.00
511.11	5444.00
511.56	5402.00
512.02	5482.00
512.48	5457.00
512.93	5429.00
513.39	5371.00
513.85	5521.00
514.30	5375.00
514.76	5403.00
515.22	5430.00
515.67	5366.00
516.13	5318.00
516.59	5259.00
517.04	5151.00
517.50	5107.00
517.95	5124.00
518.41	5268.00
518.87	5310.00
519.32	5357.00
519.78	5365.00
520.24	5430.00
520.69	5470.00
521.15	5500.00
521.60	5483.00
522.06	5474.00
522.52	5504.00
522.97	5479.00
523.43	5514.00
523.88	5593.00
524.34	5591.00
524.80	5611.00
525.25	5590.00
525.71	5506.00
526.16	5442.00
526.62	5472.00
527.07	5328.00
527.53	5421.00
527.99	5510.00
528.44	5576.00
528.90	5662.00
529.35	5711.00
529.81	5699.00
530.26	5677.00
530.72	5704.00
531.17	5668.00
531.63	5718.00
532.09	5585.00
532.54	5603.00
533.00	5574.00
533.45	5557.00
533.91	5623.00
534.36	5628.00
534.82	5703.00
535.27	5750.00
535.73	5687.00
536.18	5727.00
536.64	5714.00
537.09	5630.00
537.55	5633.00
538.00	5710.00
538.46	5700.00
538.91	5660.00
539.37	5673.00
539.82	5625.00
540.28	5590.00
540.73	5581.00
541.19	5580.00
541.64	5611.00
542.10	5755.00
542.55	5650.00
543.01	5714.00
543.46	5700.00
543.92	5687.00
544.37	5813.00
544.83	5703.00
545.28	5766.00
545.74	5796.00
546.19	5733.00
546.64	5768.00
547.10	5709.00
547.55	5702.00
548.01	5717.00
548.46	5747.00
548.92	5788.00
549.37	5754.00
549.83	5779.00
550.28	5772.00
550.73	5732.00
551.19	5722.00
551.64	5842.00
552.10	5790.00
552.55	5781.00
553.00	5751.00
553.46	5752.00
553.91	5775.00
554.37	5873.00
554.82	5854.00
555.28	5796.00
555.73	5804.00
556.18	5823.00
556.64	5750.00
557.09	5743.00
557.54	5694.00
558.00	5747.00
558.45	5708.00
558.91	5659.00
559.36	5687.00
559.81	5640.00
560.27	5809.00
560.72	5804.00
561.17	5738.00
561.63	5796.00
562.08	5737.00
562.54	5753.00
562.99	5791.00
563.44	5780.00
563.90	5827.00
564.35	5760.00
564.80	5751.00
565.26	5770.00
565.71	5735.00
566.16	5751.00
566.62	5791.00
567.07	5774.00
567.52	5763.00
567.98	5762.00
568.43	5732.00
568.88	5731.00
569.34	5776.00
569.79	5679.00
570.24	5700.00
570.69	5689.00
571.15	5607.00
571.60	5748.00
572.05	5795.00
572.51	5764.00
572.96	5826.00
573.41	5816.00
573.86	5860.00
574.32	5859.00
574.77	5755.00
575.22	5782.00
575.68	5764.00
576.13	5724.00
576.58	5769.00
577.03	5790.00
577.49	5812.00
577.94	5776.00
578.39	5753.00
578.84	5779.00
579.30	5769.00
579.75	5795.00
580.20	5800.00
580.65	5830.00
581.11	5805.00
581.56	5827.00
582.01	5866.00
582.46	5879.00
582.92	5919.00
583.37	5961.00
583.82	5890.00
584.27	5954.00
584.72	5869.00
585.18	5807.00
585.63	5878.00
586.08	5803.00
586.53	5873.00
586.98	5883.00
587.44	5829.00
587.89	5855.00
588.34	5698.00
588.79	5644.00
589.24	5536.00
589.70	5629.00
590.15	5591.00
590.60	5686.00
591.05	5817.00
591.50	5735.00
591.96	5752.00
592.41	5758.00
592.86	5744.00
593.31	5791.00
593.76	5792.00
594.21	5716.00
594.66	5755.00
595.12	5744.00
595.57	5783.00
596.02	5723.00
596.47	5823.00
596.92	5862.00
597.37	5776.00
597.82	5845.00
598.28	5797.00
598.73	5777.00
599.18	5880.00
599.63	5782.00
600.08	5765.00
600.53	5773.00
600.98	5788.00
601.43	5794.00
601.88	5804.00
602.34	5787.00
602.79	5780.00
603.24	5845.00
603.69	5888.00
604.14	5905.00
604.59	5929.00
605.04	5879.00
605.49	5850.00
605.94	5835.00
606.39	5858.00
606.84	5948.00
607.30	5923.00
607.75	5851.00
608.20	5862.00
608.65	5895.00
609.10	5836.00
609.55	5908.00
610.00	5859.00
610.45	5833.00
610.90	5896.00
611.35	5846.00
611.80	5832.00
612.25	5840.00
612.70	5921.00
613.15	5849.00
613.60	5843.00
614.05	5850.00
614.50	5788.00
614.95	5853.00
615.40	5912.00
615.85	5760.00
616.30	5775.00
616.75	5737.00
617.20	5692.00
617.65	5786.00
618.10	5875.00
618.55	5872.00
619.00	5859.00
619.45	5867.00
619.90	5893.00
620.35	5937.00
620.80	5888.00
621.25	5906.00
621.70	5890.00
622.15	5807.00
622.60	5851.00
623.05	5770.00
623.50	5770.00
623.95	5785.00
624.40	5770.00
624.85	5838.00
625.30	5761.00
625.75	5768.00
626.20	5747.00
626.65	5863.00
627.10	5826.00
627.55	5751.00
627.99	5681.00
628.44	5715.00
628.89	5785.00
629.34	5760.00
629.79	5777.00
630.24	5772.00
630.69	5775.00
631.14	5745.00
631.59	5743.00
632.04	5842.00
632.49	5784.00
632.94	5845.00
633.38	5832.00
633.83	5835.00
634.28	5832.00
634.73	5848.00
635.18	5867.00
635.63	5907.00
636.08	5868.00
636.53	5916.00
636.97	5892.00
637.42	5902.00
637.87	5989.00
638.32	5981.00
638.77	5959.00
639.22	5935.00
639.67	5956.00
640.11	5860.00
640.56	5912.00
641.01	5870.00
641.46	5915.00
641.91	5910.00
642.36	5929.00
642.81	5939.00
643.25	5918.00
643.70	5837.00
644.15	5851.00
644.60	5911.00
645.05	5861.00
645.49	5898.00
645.94	5787.00
646.39	5881.00
646.84	5904.00
647.29	5819.00
647.73	5763.00
648.18	5827.00
648.63	5747.00
649.08	5702.00
649.53	5706.00
649.97	5716.00
650.42	5901.00
650.87	5870.00
651.32	5886.00
651.77	5829.00
652.21	5812.00
652.66	5823.00
653.11	5905.00
653.56	5833.00
654.00	5874.00
654.45	5835.00
654.90	5797.00
655.35	5710.00
655.79	5609.00
656.24	5320.00
656.69	5379.00
657.14	5474.00
657.58	5659.00
658.03	5758.00
658.48	5815.00
658.92	5870.00
659.37	5847.00
659.82	5898.00
660.27	5851.00
660.71	5908.00
661.16	5870.00
661.61	5957.00
662.05	5913.00
662.50	5919.00
662.95	5926.00
663.39	5868.00
663.84	5849.00
664.29	5863.00
664.74	5856.00
665.18	5931.00
665.63	5904.00
666.08	5860.00
666.52	5862.00
666.97	5890.00
667.42	5900.00
667.86	5873.00
668.31	5871.00
668.76	5856.00
669.20	5904.00
669.65	5922.00
670.09	5897.00
670.54	5853.00
670.99	5870.00
671.43	5821.00
671.88	5846.00
672.33	5872.00
672.77	5860.00
673.22	5837.00
673.66	5874.00
674.11	5796.00
674.56	5825.00
675.00	5850.00
675.45	5830.00
675.90	5849.00
676.34	5825.00
676.79	5818.00
677.23	5820.00
677.68	5860.00
678.12	5870.00
678.57	5805.00
679.02	5881.00
679.46	5857.00
679.91	5844.00
680.35	5785.00
680.80	5754.00
681.25	5796.00
681.69	5831.00
682.14	5826.00
682.58	5795.00
683.03	5815.00
683.47	5829.00
683.92	5744.00
684.36	5756.00
684.81	5758.00
685.25	5738.00
685.70	5756.00
686.15	5761.00
686.59	5495.00
687.04	5048.00
687.48	4826.00
687.93	4973.00
688.37	5177.00
688.82	5210.00
689.26	5253.00
689.71	5243.00
690.15	5277.00
690.60	5340.00
691.04	5361.00
691.49	5460.00
691.93	5481.00
692.38	5495.00
692.82	5510.00
693.27	5459.00
693.71	5469.00
694.16	5393.00
694.60	5460.00
695.04	5426.00
695.49	5447.00
695.93	5503.00
696.38	5542.00
696.82	5559.00
697.27	5633.00
697.71	5652.00
698.16	5573.00
698.60	5570.00
699.04	5503.00
699.49	5435.00
699.93	5497.00
700.38	5515.00
700.82	5465.00
701.27	5463.00
701.71	5410.00
702.15	5517.00
702.60	5374.00
703.04	5531.00
703.49	5493.00
703.93	5502.00
704.37	5542.00
704.82	5617.00
705.26	5530.00
705.71	5540.00
706.15	5492.00
706.59	5531.00
707.04	5556.00
707.48	5556.00
707.93	5556.00
708.37	5560.00
708.81	5618.00
709.26	5619.00
709.70	5591.00
710.14	5607.00
710.59	5623.00
711.03	5582.00
711.47	5533.00
711.92	5519.00
712.36	5508.00
712.80	5457.00
713.25	5537.00
713.69	5578.00
714.13	5477.00
714.58	5470.00
715.02	5508.00
715.46	5377.00
715.91	5411.00
716.35	5342.00
716.79	5212.00
717.24	4961.00
717.68	4857.00
718.12	4801.00
718.57	4798.00
719.01	4741.00
719.45	4727.00
719.89	4710.00
720.34	4613.00
720.78	4796.00
721.22	4984.00
721.66	5127.00
722.11	5176.00
722.55	5174.00
722.99	5147.00
723.44	4964.00
723.88	4861.00
724.32	4796.00
724.76	4819.00
725.21	4859.00
725.65	4817.00
726.09	4894.00
726.53	4914.00
726.97	4943.00
727.42	4940.00
727.86	4843.00
728.30	4907.00
728.74	4893.00
729.19	4802.00
729.63	4868.00
730.07	4972.00
730.51	4874.00
730.95	4862.00
731.40	4970.00
731.84	5019.00
732.28	5095.00
732.72	5159.00
733.16	5169.00
733.61	5203.00
734.05	5223.00
734.49	5191.00
734.93	5224.00
735.37	5201.00
735.81	5273.00
736.26	5249.00
736.70	5232.00
737.14	5281.00
737.58	5275.00
738.02	5226.00
738.46	5198.00
738.90	5118.00
739.35	5173.00
739.79	5204.00
740.23	5256.00
740.67	5285.00
741.11	5219.00
741.55	5216.00
741.99	5204.00
742.44	5312.00
742.88	5220.00
743.32	5255.00
743.76	5281.00
744.20	5209.00
744.64	5163.00
745.08	5216.00
745.52	5274.00
745.96	5317.00
746.40	5296.00
746.84	5260.00
747.29	5265.00
747.73	5283.00
748.17	5209.00
748.61	5243.00
749.05	5267.00
749.49	5267.00
749.93	5216.00
750.37	5251.00
750.81	5315.00
751.25	5234.00
751.69	5264.00
752.13	5263.00
752.57	5226.00
753.01	5251.00
753.45	5266.00
753.89	5272.00
754.33	5321.00
754.77	5259.00
755.21	5265.00
755.65	5269.00
756.09	5264.00
756.53	5275.00
756.97	5255.00
757.41	5240.00
757.85	5212.00
758.29	5202.00
758.73	5130.00
759.17	4979.00
759.61	4357.00
760.05	3610.00
760.49	3142.00
760.93	3066.00
761.37	3242.00
761.81	3711.00
762.25	3977.00
762.69	3793.00
763.13	3611.00
763.57	3640.00
764.01	3690.00
764.45	3872.00
764.89	4045.00
765.33	4213.00
765.77	4338.00
766.21	4436.00
766.65	4675.00
767.09	4806.00
767.53	4843.00
767.96	4987.00
768.40	4984.00
768.84	5051.00
769.28	4984.00
769.72	5048.00
770.16	5056.00
770.60	5116.00
771.04	5119.00
771.48	5110.00
771.92	5155.00
772.35	5157.00
772.79	5112.00
773.23	5167.00
773.67	5171.00
774.11	5208.00
774.55	5082.00
774.99	5069.00
775.43	5088.00
775.86	5108.00
776.30	5106.00
776.74	5171.00
777.18	5133.00
777.62	5060.00
778.06	5119.00
778.50	5130.00
778.93	5099.00
779.37	5089.00
779.81	5072.00
780.25	5028.00
780.69	5060.00
781.12	4987.00
781.56	5021.00
782.00	5065.00
782.44	5110.00
782.88	5076.00
783.32	5072.00
783.75	5008.00
784.19	5047.00
784.63	5025.00
785.07	4994.00
785.50	5010.00
785.94	4979.00
786.38	4960.00
786.82	4934.00
787.26	4966.00
787.69	4970.00
788.13	4978.00
